wavelength(nm)         real         imag
100.00   3.83762157   0.00059608
102.00   3.83510172   0.00063257
104.00   3.83253199   0.00067051
106.00   3.82991238   0.00070994
108.00   3.82724290   0.00075088
110.00   3.82452354   0.00079337
112.00   3.82175431   0.00083743
114.00   3.81893521   0.00088310
116.00   3.81606623   0.00093039
118.00   3.81314738   0.00097935
120.00   3.81017867   0.00102999
122.00   3.80716008   0.00108235
124.00   3.80409163   0.00113645
126.00   3.80097331   0.00119233
128.00   3.79780513   0.00125000
130.00   3.79458709   0.00130951
132.00   3.79131919   0.00137088
134.00   3.78800142   0.00143413
136.00   3.78463380   0.00149930
138.00   3.78121632   0.00156642
140.00   3.77774899   0.00163551
142.00   3.77423180   0.00170660
144.00   3.77066476   0.00177972
146.00   3.76704787   0.00185490
148.00   3.76338113   0.00193217
150.00   3.75966455   0.00201155
152.00   3.75589811   0.00209308
154.00   3.75208184   0.00217678
156.00   3.74821572   0.00226268
158.00   3.74429976   0.00235081
160.00   3.74033396   0.00244121
162.00   3.73631832   0.00253389
164.00   3.73225285   0.00262888
166.00   3.72813754   0.00272622
168.00   3.72397240   0.00282593
170.00   3.71975744   0.00292805
172.00   3.71549264   0.00303259
174.00   3.71117802   0.00313960
176.00   3.70681357   0.00324909
178.00   3.70239930   0.00336109
180.00   3.69793521   0.00347564
182.00   3.69342130   0.00359277
184.00   3.68885757   0.00371249
186.00   3.68424403   0.00383484
188.00   3.67958068   0.00395986
190.00   3.67486751   0.00408756
192.00   3.67010454   0.00421797
194.00   3.66529176   0.00435113
196.00   3.66042917   0.00448706
198.00   3.65551679   0.00462579
200.00   3.65055460   0.00476735
202.00   3.64554262   0.00491177
204.00   3.64048083   0.00505908
206.00   3.63536926   0.00520930
208.00   3.63020789   0.00536247
210.00   3.62499674   0.00551860
212.00   3.61973580   0.00567774
214.00   3.61442507   0.00583991
216.00   3.60906456   0.00600513
218.00   3.60365427   0.00617344
220.00   3.59819421   0.00634486
222.00   3.59268437   0.00651943
224.00   3.58712475   0.00669717
226.00   3.58151537   0.00687811
228.00   3.57585622   0.00706227
230.00   3.57014730   0.00724970
232.00   3.56438862   0.00744041
234.00   3.55858018   0.00763443
236.00   3.55272198   0.00783179
238.00   3.54681403   0.00803253
240.00   3.54085632   0.00823666
242.00   3.53484887   0.00844423
244.00   3.52879166   0.00865525
246.00   3.52268472   0.00886975
248.00   3.51652803   0.00908777
250.00   3.51032160   0.00930933
252.00   3.50406543   0.00953446
254.00   3.49775953   0.00976318
256.00   3.49140390   0.00999554
258.00   3.48499854   0.01023155
260.00   3.47854346   0.01047124
262.00   3.47203865   0.01071464
264.00   3.46548412   0.01096179
266.00   3.45887988   0.01121271
268.00   3.45222592   0.01146742
270.00   3.44552225   0.01172596
272.00   3.43876887   0.01198835
274.00   3.43196579   0.01225463
276.00   3.42511300   0.01252481
278.00   3.41821051   0.01279894
280.00   3.41125833   0.01307704
282.00   3.40425646   0.01335913
284.00   3.39720489   0.01364524
286.00   3.39010364   0.01393541
288.00   3.38295270   0.01422967
290.00   3.37575209   0.01452803
292.00   3.36850179   0.01483053
294.00   3.36120182   0.01513719
296.00   3.35385218   0.01544806
298.00   3.34645287   0.01576314
300.00   3.33900390   0.01608248
302.00   3.33150526   0.01640610
304.00   3.32395696   0.01673403
306.00   3.31635902   0.01706629
308.00   3.30871141   0.01740292
310.00   3.30101416   0.01774394
312.00   3.29326727   0.01808939
314.00   3.28547073   0.01843929
316.00   3.27762456   0.01879366
318.00   3.26972875   0.01915255
320.00   3.26178331   0.01951597
322.00   3.25378824   0.01988395
324.00   3.24574354   0.02025653
326.00   3.23764923   0.02063372
328.00   3.22950530   0.02101557
330.00   3.22131175   0.02140209
332.00   3.21306859   0.02179332
334.00   3.20477583   0.02218928
336.00   3.19643346   0.02259001
338.00   3.18804150   0.02299552
340.00   3.17959994   0.02340586
342.00   3.17110878   0.02382104
344.00   3.16256804   0.02424110
346.00   3.15397772   0.02466606
348.00   3.14533781   0.02509596
350.00   3.13664833   0.02553081
352.00   3.12790927   0.02597066
354.00   3.11912064   0.02641552
356.00   3.11028245   0.02686543
358.00   3.10139470   0.02732041
360.00   3.09245738   0.02778049
362.00   3.08347052   0.02824570
364.00   3.07443410   0.02871607
366.00   3.06534814   0.02919163
368.00   3.05621264   0.02967241
370.00   3.04702759   0.03015842
372.00   3.03779302   0.03064971
374.00   3.02850891   0.03114630
376.00   3.01917528   0.03164822
378.00   3.00979212   0.03215549
380.00   3.00035945   0.03266815
382.00   2.99087726   0.03318622
384.00   2.98134557   0.03370973
386.00   2.97176437   0.03423872
388.00   2.96213367   0.03477320
390.00   2.95245347   0.03531320
392.00   2.94272377   0.03585876
394.00   2.93294459   0.03640990
396.00   2.92311593   0.03696665
398.00   2.91323778   0.03752905
400.00   2.90331016   0.03809710
402.00   2.89333307   0.03867086
404.00   2.88330651   0.03925033
406.00   2.87323049   0.03983556
408.00   2.86310501   0.04042657
410.00   2.85293007   0.04102338
412.00   2.84270569   0.04162604
414.00   2.83243186   0.04223455
416.00   2.82210859   0.04284896
418.00   2.81173588   0.04346929
420.00   2.80131375   0.04409557
422.00   2.79084218   0.04472782
424.00   2.78032120   0.04536608
426.00   2.76975080   0.04601037
428.00   2.75913098   0.04666073
430.00   2.74846175   0.04731717
432.00   2.73774312   0.04797973
434.00   2.72697510   0.04864844
436.00   2.71615767   0.04932332
438.00   2.70529086   0.05000440
440.00   2.69437466   0.05069171
442.00   2.68340909   0.05138529
444.00   2.67239413   0.05208514
446.00   2.66132981   0.05279131
448.00   2.65021612   0.05350383
450.00   2.63905307   0.05422271
452.00   2.62784066   0.05494800
454.00   2.61657890   0.05567971
456.00   2.60526780   0.05641788
458.00   2.59390735   0.05716252
460.00   2.58249757   0.05791368
462.00   2.57103846   0.05867138
464.00   2.55953002   0.05943565
466.00   2.54797226   0.06020651
468.00   2.53636518   0.06098399
470.00   2.52470879   0.06176813
472.00   2.51300309   0.06255895
474.00   2.50124810   0.06335647
476.00   2.48944380   0.06416073
478.00   2.47759022   0.06497175
480.00   2.46568735   0.06578956
482.00   2.45373520   0.06661420
484.00   2.44173377   0.06744568
486.00   2.42968308   0.06828403
488.00   2.41758311   0.06912929
490.00   2.40543389   0.06998148
492.00   2.39323542   0.07084063
494.00   2.38098770   0.07170677
496.00   2.36869073   0.07257993
498.00   2.35634452   0.07346012
500.00   2.34394908   0.07434739
502.00   2.33150442   0.07524176
504.00   2.31901053   0.07614326
506.00   2.30646742   0.07705191
508.00   2.29387510   0.07796774
510.00   2.28123358   0.07889079
512.00   2.26854286   0.07982107
514.00   2.25580294   0.08075863
516.00   2.24301383   0.08170347
518.00   2.23017554   0.08265564
520.00   2.21728807   0.08361516
522.00   2.20435143   0.08458207
524.00   2.19136563   0.08555637
526.00   2.17833066   0.08653811
528.00   2.16524653   0.08752732
530.00   2.15211326   0.08852401
532.00   2.13893084   0.08952823
534.00   2.12569928   0.09053999
536.00   2.11241859   0.09155932
538.00   2.09908878   0.09258625
540.00   2.08570984   0.09362082
542.00   2.07228178   0.09466304
544.00   2.05880462   0.09571295
546.00   2.04527836   0.09677057
548.00   2.03170299   0.09783594
550.00   2.01807854   0.09890907
552.00   2.00440500   0.09999000
554.00   1.99068238   0.10107875
556.00   1.97691068   0.10217536
558.00   1.96308992   0.10327985
560.00   1.94922009   0.10439224
562.00   1.93530121   0.10551258
564.00   1.92133328   0.10664087
566.00   1.90731631   0.10777716
568.00   1.89325030   0.10892147
570.00   1.87913525   0.11007382
572.00   1.86497118   0.11123425
574.00   1.85075810   0.11240278
576.00   1.83649600   0.11357944
578.00   1.82218489   0.11476426
580.00   1.80782478   0.11595727
582.00   1.79341567   0.11715849
584.00   1.77895758   0.11836795
586.00   1.76445051   0.11958568
588.00   1.74989446   0.12081171
590.00   1.73528944   0.12204606
592.00   1.72063546   0.12328877
594.00   1.70593252   0.12453986
596.00   1.69118063   0.12579935
598.00   1.67637980   0.12706728
600.00   1.66153003   0.12834367
602.00   1.64663133   0.12962855
604.00   1.63168370   0.13092196
606.00   1.61668716   0.13222390
608.00   1.60164171   0.13353443
610.00   1.58654735   0.13485355
612.00   1.57140409   0.13618130
614.00   1.55621194   0.13751771
616.00   1.54097090   0.13886281
618.00   1.52568099   0.14021662
620.00   1.51034220   0.14157916
622.00   1.49495455   0.14295048
624.00   1.47951804   0.14433059
626.00   1.46403268   0.14571952
628.00   1.44849847   0.14711730
630.00   1.43291543   0.14852396
632.00   1.41728355   0.14993953
634.00   1.40160285   0.15136403
636.00   1.38587333   0.15279748
638.00   1.37009500   0.15423993
640.00   1.35426786   0.15569140
642.00   1.33839192   0.15715190
644.00   1.32246720   0.15862148
646.00   1.30649369   0.16010016
648.00   1.29047140   0.16158796
650.00   1.27440035   0.16308492
652.00   1.25828053   0.16459105
654.00   1.24211195   0.16610640
656.00   1.22589463   0.16763098
658.00   1.20962856   0.16916483
660.00   1.19331376   0.17070796
662.00   1.17695023   0.17226042
664.00   1.16053798   0.17382222
666.00   1.14407702   0.17539340
668.00   1.12756734   0.17697397
670.00   1.11100897   0.17856398
672.00   1.09440191   0.18016344
674.00   1.07774616   0.18177238
676.00   1.06104174   0.18339084
678.00   1.04428864   0.18501883
680.00   1.02748688   0.18665639
682.00   1.01063647   0.18830354
684.00   0.99373740   0.18996032
686.00   0.97678969   0.19162674
688.00   0.95979335   0.19330284
690.00   0.94274839   0.19498864
692.00   0.92565480   0.19668417
694.00   0.90851260   0.19838945
696.00   0.89132180   0.20010453
698.00   0.87408240   0.20182941
700.00   0.85679440   0.20356414
702.00   0.83945783   0.20530873
704.00   0.82207268   0.20706322
706.00   0.80463897   0.20882762
708.00   0.78715669   0.21060198
710.00   0.76962587   0.21238631
712.00   0.75204649   0.21418065
714.00   0.73441859   0.21598502
716.00   0.71674215   0.21779945
718.00   0.69901719   0.21962396
720.00   0.68124371   0.22145859
722.00   0.66342173   0.22330335
724.00   0.64555125   0.22515829
726.00   0.62763228   0.22702342
728.00   0.60966483   0.22889877
730.00   0.59164890   0.23078437
732.00   0.57358450   0.23268024
734.00   0.55547165   0.23458642
736.00   0.53731034   0.23650294
738.00   0.51910058   0.23842981
740.00   0.50084239   0.24036706
742.00   0.48253578   0.24231473
744.00   0.46418074   0.24427284
746.00   0.44577729   0.24624141
748.00   0.42732543   0.24822048
750.00   0.40882518   0.25021008
752.00   0.39027654   0.25221022
754.00   0.37167951   0.25422093
756.00   0.35303412   0.25624225
758.00   0.33434036   0.25827420
760.00   0.31559824   0.26031681
762.00   0.29680778   0.26237010
764.00   0.27796897   0.26443410
766.00   0.25908184   0.26650884
768.00   0.24014637   0.26859435
770.00   0.22116260   0.27069065
772.00   0.20213051   0.27279777
774.00   0.18305013   0.27491574
776.00   0.16392145   0.27704458
778.00   0.14474449   0.27918432
780.00   0.12551925   0.28133499
782.00   0.10624575   0.28349662
784.00   0.08692399   0.28566923
786.00   0.06755398   0.28785284
788.00   0.04813573   0.29004750
790.00   0.02866925   0.29225322
792.00   0.00915454   0.29447003
794.00  -0.01040838   0.29669795
796.00  -0.03001952   0.29893703
798.00  -0.04967885   0.30118727
800.00  -0.06938637   0.30344871
802.00  -0.08914208   0.30572138
804.00  -0.10894596   0.30800530
806.00  -0.12879801   0.31030050
808.00  -0.14869821   0.31260700
810.00  -0.16864656   0.31492484
812.00  -0.18864305   0.31725404
814.00  -0.20868768   0.31959463
816.00  -0.22878042   0.32194663
818.00  -0.24892128   0.32431007
820.00  -0.26911025   0.32668498
822.00  -0.28934731   0.32907138
824.00  -0.30963246   0.33146931
826.00  -0.32996568   0.33387879
828.00  -0.35034698   0.33629984
830.00  -0.37077634   0.33873249
832.00  -0.39125376   0.34117677
834.00  -0.41177921   0.34363271
836.00  -0.43235271   0.34610033
838.00  -0.45297423   0.34857966
840.00  -0.47364376   0.35107073
842.00  -0.49436131   0.35357356
844.00  -0.51512685   0.35608819
846.00  -0.53594039   0.35861463
848.00  -0.55680190   0.36115291
850.00  -0.57771139   0.36370306
852.00  -0.59866885   0.36626511
854.00  -0.61967426   0.36883909
856.00  -0.64072761   0.37142501
858.00  -0.66182890   0.37402292
860.00  -0.68297812   0.37663283
862.00  -0.70417526   0.37925477
864.00  -0.72542031   0.38188876
866.00  -0.74671326   0.38453484
868.00  -0.76805410   0.38719304
870.00  -0.78944282   0.38986337
872.00  -0.81087941   0.39254586
874.00  -0.83236387   0.39524055
876.00  -0.85389618   0.39794746
878.00  -0.87547634   0.40066661
880.00  -0.89710434   0.40339803
882.00  -0.91878016   0.40614175
884.00  -0.94050380   0.40889779
886.00  -0.96227524   0.41166619
888.00  -0.98409449   0.41444696
890.00  -1.00596152   0.41724014
892.00  -1.02787634   0.42004574
894.00  -1.04983892   0.42286381
896.00  -1.07184927   0.42569436
898.00  -1.09390737   0.42853742
900.00  -1.11601321   0.43139302
902.00  -1.13816678   0.43426118
904.00  -1.16036808   0.43714194
906.00  -1.18261709   0.44003531
908.00  -1.20491380   0.44294132
910.00  -1.22725821   0.44586000
912.00  -1.24965031   0.44879138
914.00  -1.27209008   0.45173549
916.00  -1.29457752   0.45469234
918.00  -1.31711261   0.45766197
920.00  -1.33969535   0.46064440
922.00  -1.36232572   0.46363966
924.00  -1.38500373   0.46664778
926.00  -1.40772935   0.46966878
928.00  -1.43050258   0.47270268
930.00  -1.45332341   0.47574952
932.00  -1.47619182   0.47880933
934.00  -1.49910782   0.48188212
936.00  -1.52207138   0.48496792
938.00  -1.54508250   0.48806677
940.00  -1.56814117   0.49117868
942.00  -1.59124738   0.49430368
944.00  -1.61440112   0.49744181
946.00  -1.63760238   0.50059308
948.00  -1.66085115   0.50375752
950.00  -1.68414742   0.50693516
952.00  -1.70749117   0.51012603
954.00  -1.73088241   0.51333014
956.00  -1.75432112   0.51654754
958.00  -1.77780728   0.51977824
960.00  -1.80134090   0.52302226
962.00  -1.82492196   0.52627965
964.00  -1.84855044   0.52955042
966.00  -1.87222635   0.53283459
968.00  -1.89594966   0.53613221
970.00  -1.91972037   0.53944328
972.00  -1.94353847   0.54276784
974.00  -1.96740395   0.54610591
976.00  -1.99131680   0.54945753
978.00  -2.01527701   0.55282271
980.00  -2.03928456   0.55620148
982.00  -2.06333946   0.55959388
984.00  -2.08744168   0.56299991
986.00  -2.11159121   0.56641962
988.00  -2.13578806   0.56985303
990.00  -2.16003220   0.57330016
992.00  -2.18432363   0.57676103
994.00  -2.20866233   0.58023569
996.00  -2.23304830   0.58372414
998.00  -2.25748153   0.58722643
1000.00  -2.28196199   0.59074257
1002.00  -2.30648970   0.59427258
1004.00  -2.33106463   0.59781651
1006.00  -2.35568677   0.60137436
1008.00  -2.38035611   0.60494618
1010.00  -2.40507265   0.60853197
1012.00  -2.42983636   0.61213178
1014.00  -2.45464725   0.61574563
1016.00  -2.47950530   0.61937353
1018.00  -2.50441050   0.62301553
1020.00  -2.52936284   0.62667164
1022.00  -2.55436231   0.63034189
1024.00  -2.57940889   0.63402631
1026.00  -2.60450259   0.63772492
1028.00  -2.62964338   0.64143774
1030.00  -2.65483125   0.64516481
1032.00  -2.68006621   0.64890616
1034.00  -2.70534822   0.65266179
1036.00  -2.73067729   0.65643175
1038.00  -2.75605341   0.66021606
1040.00  -2.78147655   0.66401474
1042.00  -2.80694672   0.66782782
1044.00  -2.83246390   0.67165533
1046.00  -2.85802808   0.67549729
1048.00  -2.88363924   0.67935372
1050.00  -2.90929739   0.68322466
1052.00  -2.93500250   0.68711013
1054.00  -2.96075457   0.69101015
1056.00  -2.98655358   0.69492476
1058.00  -3.01239953   0.69885396
1060.00  -3.03829240   0.70279781
1062.00  -3.06423218   0.70675631
1064.00  -3.09021887   0.71072949
1066.00  -3.11625244   0.71471738
1068.00  -3.14233290   0.71872001
1070.00  -3.16846022   0.72273740
1072.00  -3.19463440   0.72676958
1074.00  -3.22085542   0.73081657
1076.00  -3.24712328   0.73487839
1078.00  -3.27343796   0.73895508
1080.00  -3.29979946   0.74304666
1082.00  -3.32620776   0.74715316
1084.00  -3.35266284   0.75127460
1086.00  -3.37916471   0.75541100
1088.00  -3.40571334   0.75956240
1090.00  -3.43230873   0.76372881
1092.00  -3.45895086   0.76791027
1094.00  -3.48563973   0.77210680
1096.00  -3.51237532   0.77631842
1098.00  -3.53915762   0.78054516
1100.00  -3.56598662   0.78478705
1102.00  -3.59286231   0.78904411
1104.00  -3.61978468   0.79331636
1106.00  -3.64675371   0.79760384
1108.00  -3.67376939   0.80190657
1110.00  -3.70083172   0.80622457
1112.00  -3.72794068   0.81055787
1114.00  -3.75509625   0.81490650
1116.00  -3.78229844   0.81927047
1118.00  -3.80954722   0.82364982
1120.00  -3.83684259   0.82804458
1122.00  -3.86418453   0.83245476
1124.00  -3.89157304   0.83688039
1126.00  -3.91900809   0.84132150
1128.00  -3.94648968   0.84577811
1130.00  -3.97401780   0.85025025
1132.00  -4.00159243   0.85473795
1134.00  -4.02921357   0.85924122
1136.00  -4.05688120   0.86376010
1138.00  -4.08459531   0.86829461
1140.00  -4.11235589   0.87284478
1142.00  -4.14016293   0.87741062
1144.00  -4.16801641   0.88199217
1146.00  -4.19591632   0.88658946
1148.00  -4.22386266   0.89120250
1150.00  -4.25185540   0.89583132
1152.00  -4.27989455   0.90047595
1154.00  -4.30798008   0.90513641
1156.00  -4.33611198   0.90981273
1158.00  -4.36429025   0.91450494
1160.00  -4.39251486   0.91921305
1162.00  -4.42078582   0.92393710
1164.00  -4.44910310   0.92867710
1166.00  -4.47746669   0.93343309
1168.00  -4.50587659   0.93820509
1170.00  -4.53433278   0.94299313
1172.00  -4.56283525   0.94779722
1174.00  -4.59138398   0.95261740
1176.00  -4.61997897   0.95745369
1178.00  -4.64862020   0.96230612
1180.00  -4.67730766   0.96717470
1182.00  -4.70604133   0.97205948
1184.00  -4.73482122   0.97696046
1186.00  -4.76364730   0.98187768
1188.00  -4.79251956   0.98681116
1190.00  -4.82143799   0.99176092
1192.00  -4.85040257   0.99672700
1194.00  -4.87941331   1.00170941
1196.00  -4.90847017   1.00670819
1198.00  -4.93757316   1.01172335
1200.00  -4.96672225   1.01675492
1202.00  -4.99591744   1.02180293
1204.00  -5.02515872   1.02686741
1206.00  -5.05444606   1.03194836
1208.00  -5.08377947   1.03704583
1210.00  -5.11315892   1.04215984
1212.00  -5.14258440   1.04729041
1214.00  -5.17205591   1.05243756
1216.00  -5.20157343   1.05760132
1218.00  -5.23113694   1.06278173
1220.00  -5.26074644   1.06797879
1222.00  -5.29040192   1.07319254
1224.00  -5.32010335   1.07842300
1226.00  -5.34985073   1.08367019
1228.00  -5.37964404   1.08893415
1230.00  -5.40948328   1.09421489
1232.00  -5.43936842   1.09951245
1234.00  -5.46929947   1.10482683
1236.00  -5.49927639   1.11015808
1238.00  -5.52929919   1.11550622
1240.00  -5.55936785   1.12087126
1242.00  -5.58948236   1.12625324
1244.00  -5.61964270   1.13165217
1246.00  -5.64984886   1.13706810
1248.00  -5.68010083   1.14250103
1250.00  -5.71039859   1.14795099
1252.00  -5.74074214   1.15341801
1254.00  -5.77113146   1.15890212
1256.00  -5.80156654   1.16440333
1258.00  -5.83204736   1.16992168
1260.00  -5.86257392   1.17545718
1262.00  -5.89314619   1.18100987
1264.00  -5.92376417   1.18657976
1266.00  -5.95442785   1.19216688
1268.00  -5.98513720   1.19777126
1270.00  -6.01589222   1.20339292
1272.00  -6.04669290   1.20903189
1274.00  -6.07753922   1.21468818
1276.00  -6.10843117   1.22036183
1278.00  -6.13936874   1.22605286
1280.00  -6.17035190   1.23176129
1282.00  -6.20138066   1.23748715
1284.00  -6.23245500   1.24323046
1286.00  -6.26357490   1.24899125
1288.00  -6.29474035   1.25476954
1290.00  -6.32595134   1.26056535
1292.00  -6.35720786   1.26637872
1294.00  -6.38850988   1.27220966
1296.00  -6.41985741   1.27805820
1298.00  -6.45125042   1.28392437
