wavelength(nm)         real         imag
100.00   3.79867715   0.00096823
102.00   3.79458409   0.00102749
104.00   3.79041002   0.00108912
106.00   3.78615493   0.00115317
108.00   3.78181882   0.00121967
110.00   3.77740170   0.00128869
112.00   3.77290357   0.00136026
114.00   3.76832442   0.00143444
116.00   3.76366427   0.00151126
118.00   3.75892311   0.00159078
120.00   3.75410095   0.00167304
122.00   3.74919779   0.00175808
124.00   3.74421363   0.00184596
126.00   3.73914847   0.00193672
128.00   3.73400231   0.00203041
130.00   3.72877517   0.00212707
132.00   3.72346703   0.00222675
134.00   3.71807790   0.00232950
136.00   3.71260779   0.00243536
138.00   3.70705669   0.00254437
140.00   3.70142461   0.00265660
142.00   3.69571156   0.00277207
144.00   3.68991753   0.00289084
146.00   3.68404252   0.00301296
148.00   3.67808654   0.00313846
150.00   3.67204960   0.00326741
152.00   3.66593169   0.00339984
154.00   3.65973281   0.00353580
156.00   3.65345298   0.00367533
158.00   3.64709218   0.00381849
160.00   3.64065044   0.00396531
162.00   3.63412774   0.00411585
164.00   3.62752409   0.00427016
166.00   3.62083950   0.00442827
168.00   3.61407396   0.00459024
170.00   3.60722748   0.00475610
172.00   3.60030006   0.00492592
174.00   3.59329171   0.00509972
176.00   3.58620243   0.00527757
178.00   3.57903222   0.00545951
180.00   3.57178109   0.00564557
182.00   3.56444903   0.00583582
184.00   3.55703605   0.00603029
186.00   3.54954216   0.00622903
188.00   3.54196736   0.00643209
190.00   3.53431165   0.00663952
192.00   3.52657503   0.00685136
194.00   3.51875751   0.00706765
196.00   3.51085909   0.00728845
198.00   3.50287978   0.00751379
200.00   3.49481958   0.00774373
202.00   3.48667848   0.00797832
204.00   3.47845650   0.00821759
206.00   3.47015365   0.00846160
208.00   3.46176991   0.00871039
210.00   3.45330530   0.00896400
212.00   3.44475982   0.00922249
214.00   3.43613347   0.00948590
216.00   3.42742627   0.00975428
218.00   3.41863820   0.01002767
220.00   3.40976928   0.01030612
222.00   3.40081950   0.01058967
224.00   3.39178888   0.01087838
226.00   3.38267742   0.01117228
228.00   3.37348512   0.01147143
230.00   3.36421198   0.01177586
232.00   3.35485801   0.01208564
234.00   3.34542322   0.01240079
236.00   3.33590760   0.01272138
238.00   3.32631116   0.01304744
240.00   3.31663391   0.01337902
242.00   3.30687585   0.01371617
244.00   3.29703698   0.01405894
246.00   3.28711731   0.01440736
248.00   3.27711685   0.01476149
250.00   3.26703559   0.01512137
252.00   3.25687354   0.01548706
254.00   3.24663071   0.01585858
256.00   3.23630710   0.01623600
258.00   3.22590271   0.01661936
260.00   3.21541755   0.01700870
262.00   3.20485163   0.01740407
264.00   3.19420495   0.01780551
266.00   3.18347751   0.01821308
268.00   3.17266932   0.01862682
270.00   3.16178038   0.01904677
272.00   3.15081069   0.01947298
274.00   3.13976028   0.01990550
276.00   3.12862912   0.02034437
278.00   3.11741724   0.02078964
280.00   3.10612464   0.02124136
282.00   3.09475132   0.02169957
284.00   3.08329728   0.02216431
286.00   3.07176254   0.02263564
288.00   3.06014710   0.02311360
290.00   3.04845095   0.02359824
292.00   3.03667411   0.02408960
294.00   3.02481659   0.02458772
296.00   3.01287838   0.02509267
298.00   3.00085950   0.02560447
300.00   2.98875994   0.02612318
302.00   2.97657972   0.02664884
304.00   2.96431884   0.02718150
306.00   2.95197730   0.02772120
308.00   2.93955511   0.02826800
310.00   2.92705227   0.02882194
312.00   2.91446879   0.02938305
314.00   2.90180468   0.02995140
316.00   2.88905994   0.03052702
318.00   2.87623458   0.03110996
320.00   2.86332860   0.03170027
322.00   2.85034201   0.03229800
324.00   2.83727481   0.03290318
326.00   2.82412701   0.03351587
328.00   2.81089862   0.03413611
330.00   2.79758964   0.03476395
332.00   2.78420007   0.03539944
334.00   2.77072993   0.03604261
336.00   2.75717921   0.03669352
338.00   2.74354793   0.03735221
340.00   2.72983609   0.03801873
342.00   2.71604370   0.03869312
344.00   2.70217076   0.03937543
346.00   2.68821728   0.04006570
348.00   2.67418326   0.04076399
350.00   2.66006871   0.04147034
352.00   2.64587364   0.04218479
354.00   2.63159806   0.04290739
356.00   2.61724196   0.04363818
358.00   2.60280536   0.04437722
360.00   2.58828826   0.04512455
362.00   2.57369066   0.04588020
364.00   2.55901259   0.04664424
366.00   2.54425403   0.04741670
368.00   2.52941500   0.04819763
370.00   2.51449551   0.04898708
372.00   2.49949555   0.04978510
374.00   2.48441515   0.05059172
376.00   2.46925429   0.05140700
378.00   2.45401300   0.05223097
380.00   2.43869127   0.05306370
382.00   2.42328912   0.05390521
384.00   2.40780655   0.05475557
386.00   2.39224356   0.05561481
388.00   2.37660017   0.05648297
390.00   2.36087638   0.05736012
392.00   2.34507219   0.05824629
394.00   2.32918762   0.05914152
396.00   2.31322268   0.06004586
398.00   2.29717736   0.06095937
400.00   2.28105167   0.06188208
402.00   2.26484563   0.06281404
404.00   2.24855924   0.06375530
406.00   2.23219250   0.06470590
408.00   2.21574543   0.06566589
410.00   2.19921803   0.06663531
412.00   2.18261031   0.06761421
414.00   2.16592227   0.06860264
416.00   2.14915392   0.06960064
418.00   2.13230528   0.07060826
420.00   2.11537634   0.07162553
422.00   2.09836712   0.07265252
424.00   2.08127761   0.07368926
426.00   2.06410784   0.07473580
428.00   2.04685781   0.07579219
430.00   2.02952752   0.07685847
432.00   2.01211698   0.07793468
434.00   1.99462620   0.07902088
436.00   1.97705519   0.08011710
438.00   1.95940395   0.08122340
440.00   1.94167250   0.08233982
442.00   1.92386084   0.08346641
444.00   1.90596897   0.08460321
446.00   1.88799691   0.08575026
448.00   1.86994467   0.08690761
450.00   1.85181224   0.08807532
452.00   1.83359965   0.08925341
454.00   1.81530689   0.09044195
456.00   1.79693398   0.09164097
458.00   1.77848093   0.09285052
460.00   1.75994773   0.09407065
462.00   1.74133440   0.09530140
464.00   1.72264096   0.09654282
466.00   1.70386739   0.09779495
468.00   1.68501373   0.09905783
470.00   1.66607996   0.10033153
472.00   1.64706610   0.10161607
474.00   1.62797217   0.10291150
476.00   1.60879816   0.10421788
478.00   1.58954408   0.10553524
480.00   1.57020995   0.10686364
482.00   1.55079577   0.10820311
484.00   1.53130156   0.10955371
486.00   1.51172731   0.11091547
488.00   1.49207304   0.11228844
490.00   1.47233875   0.11367268
492.00   1.45252446   0.11506822
494.00   1.43263018   0.11647511
496.00   1.41265591   0.11789340
498.00   1.39260165   0.11932312
500.00   1.37246743   0.12076434
502.00   1.35225325   0.12221708
504.00   1.33195911   0.12368140
506.00   1.31158503   0.12515735
508.00   1.29113101   0.12664496
510.00   1.27059707   0.12814429
512.00   1.24998321   0.12965537
514.00   1.22928944   0.13117826
516.00   1.20851577   0.13271300
518.00   1.18766221   0.13425964
520.00   1.16672878   0.13581821
522.00   1.14571546   0.13738877
524.00   1.12462229   0.13897136
526.00   1.10344926   0.14056603
528.00   1.08219639   0.14217282
530.00   1.06086368   0.14379178
532.00   1.03945115   0.14542294
534.00   1.01795880   0.14706637
536.00   0.99638664   0.14872210
538.00   0.97473469   0.15039018
540.00   0.95300294   0.15207065
542.00   0.93119142   0.15376356
544.00   0.90930013   0.15546895
546.00   0.88732907   0.15718687
548.00   0.86527827   0.15891737
550.00   0.84314773   0.16066049
552.00   0.82093745   0.16241627
554.00   0.79864745   0.16418476
556.00   0.77627774   0.16596600
558.00   0.75382833   0.16776005
560.00   0.73129923   0.16956694
562.00   0.70869044   0.17138673
564.00   0.68600198   0.17321945
566.00   0.66323386   0.17506515
568.00   0.64038608   0.17692387
570.00   0.61745866   0.17879567
572.00   0.59445161   0.18068058
574.00   0.57136493   0.18257866
576.00   0.54819864   0.18448994
578.00   0.52495275   0.18641447
580.00   0.50162726   0.18835230
582.00   0.47822220   0.19030348
584.00   0.45473755   0.19226804
586.00   0.43117335   0.19424603
588.00   0.40752959   0.19623750
590.00   0.38380630   0.19824249
592.00   0.36000346   0.20026104
594.00   0.33612111   0.20229321
596.00   0.31215925   0.20433904
598.00   0.28811789   0.20639857
600.00   0.26399703   0.20847185
602.00   0.23979670   0.21055891
604.00   0.21551690   0.21265982
606.00   0.19115764   0.21477461
608.00   0.16671893   0.21690332
610.00   0.14220078   0.21904601
612.00   0.11760320   0.22120271
614.00   0.09292621   0.22337347
616.00   0.06816982   0.22555835
618.00   0.04333403   0.22775737
620.00   0.01841885   0.22997059
622.00  -0.00657570   0.23219805
624.00  -0.03164961   0.23443979
626.00  -0.05680287   0.23669587
628.00  -0.08203547   0.23896632
630.00  -0.10734740   0.24125120
632.00  -0.13273866   0.24355054
634.00  -0.15820921   0.24586439
636.00  -0.18375907   0.24819279
638.00  -0.20938821   0.25053579
640.00  -0.23509663   0.25289344
642.00  -0.26088431   0.25526578
644.00  -0.28675124   0.25765285
646.00  -0.31269741   0.26005471
648.00  -0.33872281   0.26247138
650.00  -0.36482743   0.26490292
652.00  -0.39101126   0.26734938
654.00  -0.41727428   0.26981080
656.00  -0.44361649   0.27228721
658.00  -0.47003787   0.27477868
660.00  -0.49653841   0.27728523
662.00  -0.52311810   0.27980693
664.00  -0.54977693   0.28234380
666.00  -0.57651489   0.28489590
668.00  -0.60333196   0.28746327
670.00  -0.63022814   0.29004595
672.00  -0.65720341   0.29264400
674.00  -0.68425776   0.29525745
676.00  -0.71139118   0.29788634
678.00  -0.73860365   0.30053073
680.00  -0.76589517   0.30319066
682.00  -0.79326572   0.30586618
684.00  -0.82071530   0.30855731
686.00  -0.84824388   0.31126412
688.00  -0.87585147   0.31398665
690.00  -0.90353804   0.31672494
692.00  -0.93130358   0.31947903
694.00  -0.95914808   0.32224897
696.00  -0.98707154   0.32503481
698.00  -1.01507393   0.32783658
700.00  -1.04315525   0.33065434
702.00  -1.07131548   0.33348812
704.00  -1.09955461   0.33633798
706.00  -1.12787263   0.33920395
708.00  -1.15626953   0.34208608
710.00  -1.18474529   0.34498442
712.00  -1.21329991   0.34789901
714.00  -1.24193336   0.35082989
716.00  -1.27064565   0.35377711
718.00  -1.29943674   0.35674071
720.00  -1.32830664   0.35972074
722.00  -1.35725533   0.36271724
724.00  -1.38628280   0.36573026
726.00  -1.41538904   0.36875983
728.00  -1.44457402   0.37180601
730.00  -1.47383775   0.37486884
732.00  -1.50318020   0.37794836
734.00  -1.53260137   0.38104462
736.00  -1.56210124   0.38415766
738.00  -1.59167980   0.38728752
740.00  -1.62133703   0.39043425
742.00  -1.65107293   0.39359790
744.00  -1.68088748   0.39677850
746.00  -1.71078067   0.39997611
748.00  -1.74075248   0.40319076
750.00  -1.77080291   0.40642251
752.00  -1.80093193   0.40967138
754.00  -1.83113954   0.41293744
756.00  -1.86142572   0.41622072
758.00  -1.89179047   0.41952127
760.00  -1.92223376   0.42283912
762.00  -1.95275558   0.42617434
764.00  -1.98335593   0.42952695
766.00  -2.01403478   0.43289700
768.00  -2.04479212   0.43628454
770.00  -2.07562795   0.43968962
772.00  -2.10654224   0.44311226
774.00  -2.13753499   0.44655253
776.00  -2.16860618   0.45001046
778.00  -2.19975580   0.45348610
780.00  -2.23098383   0.45697949
782.00  -2.26229026   0.46049067
784.00  -2.29367508   0.46401970
786.00  -2.32513827   0.46756660
788.00  -2.35667983   0.47113144
790.00  -2.38829973   0.47471424
792.00  -2.41999796   0.47831506
794.00  -2.45177451   0.48193394
796.00  -2.48362936   0.48557092
798.00  -2.51556251   0.48922604
800.00  -2.54757394   0.49289936
802.00  -2.57966363   0.49659091
804.00  -2.61183157   0.50030074
806.00  -2.64407775   0.50402889
808.00  -2.67640214   0.50777540
810.00  -2.70880475   0.51154032
812.00  -2.74128556   0.51532370
814.00  -2.77384454   0.51912557
816.00  -2.80648169   0.52294599
818.00  -2.83919699   0.52678499
820.00  -2.87199044   0.53064261
822.00  -2.90486200   0.53451891
824.00  -2.93781168   0.53841392
826.00  -2.97083945   0.54232769
828.00  -3.00394531   0.54626027
830.00  -3.03712923   0.55021169
832.00  -3.07039121   0.55418200
834.00  -3.10373122   0.55817124
836.00  -3.13714926   0.56217946
838.00  -3.17064531   0.56620670
840.00  -3.20421936   0.57025301
842.00  -3.23787139   0.57431842
844.00  -3.27160138   0.57840298
846.00  -3.30540933   0.58250674
848.00  -3.33929522   0.58662974
850.00  -3.37325903   0.59077201
852.00  -3.40730075   0.59493362
854.00  -3.44142036   0.59911459
856.00  -3.47561785   0.60331498
858.00  -3.50989321   0.60753482
860.00  -3.54424642   0.61177415
862.00  -3.57867746   0.61603304
864.00  -3.61318633   0.62031150
866.00  -3.64777300   0.62460960
868.00  -3.68243746   0.62892737
870.00  -3.71717970   0.63326486
872.00  -3.75199970   0.63762210
874.00  -3.78689744   0.64199915
876.00  -3.82187292   0.64639604
878.00  -3.85692611   0.65081283
880.00  -3.89205700   0.65524954
882.00  -3.92726558   0.65970624
884.00  -3.96255183   0.66418295
886.00  -3.99791574   0.66867972
888.00  -4.03335729   0.67319660
890.00  -4.06887646   0.67773363
892.00  -4.10447325   0.68229085
894.00  -4.14014763   0.68686830
896.00  -4.17589958   0.69146604
898.00  -4.21172911   0.69608409
900.00  -4.24763618   0.70072251
902.00  -4.28362078   0.70538134
904.00  -4.31968291   0.71006062
906.00  -4.35582253   0.71476040
908.00  -4.39203965   0.71948071
910.00  -4.42833423   0.72422160
912.00  -4.46470628   0.72898311
914.00  -4.50115576   0.73376529
916.00  -4.53768267   0.73856818
918.00  -4.57428698   0.74339183
920.00  -4.61096869   0.74823627
922.00  -4.64772778   0.75310154
924.00  -4.68456423   0.75798770
926.00  -4.72147803   0.76289479
928.00  -4.75846916   0.76782284
930.00  -4.79553760   0.77277190
932.00  -4.83268334   0.77774201
934.00  -4.86990637   0.78273322
936.00  -4.90720666   0.78774557
938.00  -4.94458420   0.79277910
940.00  -4.98203898   0.79783386
942.00  -5.01957098   0.80290988
944.00  -5.05718018   0.80800721
946.00  -5.09486657   0.81312590
948.00  -5.13263012   0.81826598
950.00  -5.17047084   0.82342751
952.00  -5.20838869   0.82861051
954.00  -5.24638366   0.83381504
956.00  -5.28445574   0.83904113
958.00  -5.32260491   0.84428884
960.00  -5.36083115   0.84955819
962.00  -5.39913445   0.85484925
964.00  -5.43751480   0.86016204
966.00  -5.47597216   0.86549661
968.00  -5.51450654   0.87085300
970.00  -5.55311790   0.87623126
972.00  -5.59180624   0.88163143
974.00  -5.63057154   0.88705355
976.00  -5.66941378   0.89249766
978.00  -5.70833294   0.89796381
980.00  -5.74732902   0.90345203
982.00  -5.78640199   0.90896238
984.00  -5.82555183   0.91449489
986.00  -5.86477853   0.92004961
988.00  -5.90408207   0.92562658
990.00  -5.94346244   0.93122584
992.00  -5.98291961   0.93684743
994.00  -6.02245358   0.94249140
996.00  -6.06206432   0.94815778
998.00  -6.10175182   0.95384663
1000.00  -6.14151606   0.95955798
1002.00  -6.18135703   0.96529188
1004.00  -6.22127470   0.97104836
1006.00  -6.26126906   0.97682747
1008.00  -6.30134009   0.98262926
1010.00  -6.34148778   0.98845376
1012.00  -6.38171211   0.99430102
1014.00  -6.42201306   1.00017108
1016.00  -6.46239061   1.00606398
1018.00  -6.50284476   1.01197977
1020.00  -6.54337547   1.01791848
1022.00  -6.58398273   1.02388016
1024.00  -6.62466653   1.02986485
1026.00  -6.66542684   1.03587259
1028.00  -6.70626366   1.04190343
1030.00  -6.74717696   1.04795741
1032.00  -6.78816673   1.05403456
1034.00  -6.82923294   1.06013494
1036.00  -6.87037559   1.06625858
1038.00  -6.91159465   1.07240552
1040.00  -6.95289010   1.07857582
1042.00  -6.99426193   1.08476950
1044.00  -7.03571013   1.09098661
1046.00  -7.07723466   1.09722720
1048.00  -7.11883552   1.10349131
1050.00  -7.16051269   1.10977897
1052.00  -7.20226615   1.11609023
1054.00  -7.24409588   1.12242514
1056.00  -7.28600187   1.12878373
1058.00  -7.32798409   1.13516604
1060.00  -7.37004253   1.14157212
1062.00  -7.41217717   1.14800201
1064.00  -7.45438799   1.15445575
1066.00  -7.49667498   1.16093339
1068.00  -7.53903812   1.16743496
1070.00  -7.58147738   1.17396050
1072.00  -7.62399276   1.18051007
1074.00  -7.66658423   1.18708370
1076.00  -7.70925177   1.19368142
1078.00  -7.75199537   1.20030329
1080.00  -7.79481501   1.20694935
1082.00  -7.83771067   1.21361964
1084.00  -7.88068233   1.22031419
1086.00  -7.92372997   1.22703305
1088.00  -7.96685358   1.23377627
1090.00  -8.01005314   1.24054388
1092.00  -8.05332863   1.24733593
1094.00  -8.09668003   1.25415245
1096.00  -8.14010732   1.26099349
1098.00  -8.18361048   1.26785910
1100.00  -8.22718950   1.27474930
1102.00  -8.27084435   1.28166415
1104.00  -8.31457503   1.28860368
1106.00  -8.35838150   1.29556794
1108.00  -8.40226376   1.30255697
1110.00  -8.44622177   1.30957081
1112.00  -8.49025554   1.31660950
1114.00  -8.53436502   1.32367308
1116.00  -8.57855022   1.33076160
1118.00  -8.62281110   1.33787509
1120.00  -8.66714765   1.34501360
1122.00  -8.71155985   1.35217716
1124.00  -8.75604769   1.35936583
1126.00  -8.80061113   1.36657963
1128.00  -8.84525017   1.37381862
1130.00  -8.88996479   1.38108283
1132.00  -8.93475496   1.38837231
1134.00  -8.97962067   1.39568709
1136.00  -9.02456189   1.40302722
1138.00  -9.06957862   1.41039273
1140.00  -9.11467082   1.41778368
1142.00  -9.15983849   1.42520010
1144.00  -9.20508160   1.43264203
1146.00  -9.25040013   1.44010951
1148.00  -9.29579406   1.44760259
1150.00  -9.34126338   1.45512130
1152.00  -9.38680807   1.46266569
1154.00  -9.43242810   1.47023580
1156.00  -9.47812345   1.47783166
1158.00  -9.52389412   1.48545333
1160.00  -9.56974007   1.49310083
1162.00  -9.61566129   1.50077422
1164.00  -9.66165776   1.50847353
1166.00  -9.70772946   1.51619881
1168.00  -9.75387637   1.52395009
1170.00  -9.80009847   1.53172741
1172.00  -9.84639574   1.53953082
1174.00  -9.89276817   1.54736036
1176.00  -9.93921572   1.55521607
1178.00  -9.98573839   1.56309798
1180.00 -10.03233616   1.57100615
1182.00 -10.07900899   1.57894061
1184.00 -10.12575688   1.58690140
1186.00 -10.17257980   1.59488856
1188.00 -10.21947774   1.60290214
1190.00 -10.26645067   1.61094216
1192.00 -10.31349858   1.61900869
1194.00 -10.36062144   1.62710175
1196.00 -10.40781923   1.63522138
1198.00 -10.45509194   1.64336764
1200.00 -10.50243955   1.65154055
1202.00 -10.54986203   1.65974016
1204.00 -10.59735936   1.66796650
1206.00 -10.64493153   1.67621963
1208.00 -10.69257852   1.68449958
1210.00 -10.74030030   1.69280639
1212.00 -10.78809686   1.70114010
1214.00 -10.83596817   1.70950075
1216.00 -10.88391421   1.71788838
1218.00 -10.93193497   1.72630304
1220.00 -10.98003042   1.73474476
1222.00 -11.02820055   1.74321358
1224.00 -11.07644533   1.75170955
1226.00 -11.12476475   1.76023270
1228.00 -11.17315878   1.76878308
1230.00 -11.22162740   1.77736072
1232.00 -11.27017059   1.78596567
1234.00 -11.31878833   1.79459796
1236.00 -11.36748061   1.80325764
1238.00 -11.41624740   1.81194475
1240.00 -11.46508867   1.82065933
1242.00 -11.51400442   1.82940141
1244.00 -11.56299462   1.83817104
1246.00 -11.61205924   1.84696825
1248.00 -11.66119828   1.85579310
1250.00 -11.71041170   1.86464561
1252.00 -11.75969949   1.87352584
1254.00 -11.80906162   1.88243381
1256.00 -11.85849808   1.89136957
1258.00 -11.90800885   1.90033315
1260.00 -11.95759390   1.90932461
1262.00 -12.00725321   1.91834398
1264.00 -12.05698676   1.92739129
1266.00 -12.10679454   1.93646660
1268.00 -12.15667652   1.94556993
1270.00 -12.20663267   1.95470133
1272.00 -12.25666299   1.96386084
1274.00 -12.30676744   1.97304850
1276.00 -12.35694601   1.98226435
1278.00 -12.40719867   1.99150843
1280.00 -12.45752541   2.00078078
1282.00 -12.50792620   2.01008144
1284.00 -12.55840103   2.01941044
1286.00 -12.60894986   2.02876784
1288.00 -12.65957269   2.03815366
1290.00 -12.71026948   2.04756795
1292.00 -12.76104022   2.05701075
1294.00 -12.81188489   2.06648209
1296.00 -12.86280347   2.07598202
1298.00 -12.91379592   2.08551058
