wavelength(nm)         real         imag
100.00   3.86948519   0.00029160
102.00   3.86825250   0.00030944
104.00   3.86699542   0.00032800
106.00   3.86571394   0.00034729
108.00   3.86440806   0.00036732
110.00   3.86307778   0.00038811
112.00   3.86172311   0.00040966
114.00   3.86034403   0.00043200
116.00   3.85894056   0.00045514
118.00   3.85751269   0.00047909
120.00   3.85606043   0.00050386
122.00   3.85458378   0.00052947
124.00   3.85308272   0.00055594
126.00   3.85155728   0.00058327
128.00   3.85000744   0.00061149
130.00   3.84843321   0.00064060
132.00   3.84683459   0.00067062
134.00   3.84521158   0.00070156
136.00   3.84356418   0.00073344
138.00   3.84189239   0.00076627
140.00   3.84019621   0.00080007
142.00   3.83847564   0.00083485
144.00   3.83673068   0.00087062
146.00   3.83496134   0.00090739
148.00   3.83316761   0.00094519
150.00   3.83134950   0.00098403
152.00   3.82950701   0.00102391
154.00   3.82764013   0.00106485
156.00   3.82574887   0.00110688
158.00   3.82383322   0.00114999
160.00   3.82189320   0.00119421
162.00   3.81992880   0.00123955
164.00   3.81794001   0.00128602
166.00   3.81592685   0.00133364
168.00   3.81388932   0.00138241
170.00   3.81182740   0.00143237
172.00   3.80974111   0.00148351
174.00   3.80763045   0.00153585
176.00   3.80549541   0.00158942
178.00   3.80333600   0.00164421
180.00   3.80115222   0.00170024
182.00   3.79894406   0.00175754
184.00   3.79671154   0.00181611
186.00   3.79445465   0.00187596
188.00   3.79217339   0.00193712
190.00   3.78986776   0.00199959
192.00   3.78753777   0.00206338
194.00   3.78518342   0.00212852
196.00   3.78280469   0.00219502
198.00   3.78040161   0.00226288
200.00   3.77797417   0.00233214
202.00   3.77552236   0.00240278
204.00   3.77304620   0.00247484
206.00   3.77054567   0.00254833
208.00   3.76802079   0.00262326
210.00   3.76547155   0.00269964
212.00   3.76289796   0.00277748
214.00   3.76030001   0.00285681
216.00   3.75767771   0.00293764
218.00   3.75503106   0.00301998
220.00   3.75236006   0.00310383
222.00   3.74966471   0.00318923
224.00   3.74694501   0.00327618
226.00   3.74420097   0.00336469
228.00   3.74143257   0.00345478
230.00   3.73863984   0.00354647
232.00   3.73582276   0.00363976
234.00   3.73298133   0.00373467
236.00   3.73011557   0.00383122
238.00   3.72722547   0.00392942
240.00   3.72431103   0.00402928
242.00   3.72137225   0.00413082
244.00   3.71840913   0.00423405
246.00   3.71542168   0.00433898
248.00   3.71240990   0.00444563
250.00   3.70937379   0.00455402
252.00   3.70631334   0.00466415
254.00   3.70322857   0.00477604
256.00   3.70011947   0.00488970
258.00   3.69698604   0.00500516
260.00   3.69382828   0.00512241
262.00   3.69064621   0.00524148
264.00   3.68743981   0.00536238
266.00   3.68420909   0.00548513
268.00   3.68095405   0.00560973
270.00   3.67767469   0.00573620
272.00   3.67437101   0.00586456
274.00   3.67104302   0.00599482
276.00   3.66769072   0.00612700
278.00   3.66431410   0.00626110
280.00   3.66091317   0.00639714
282.00   3.65748793   0.00653513
284.00   3.65403839   0.00667510
286.00   3.65056454   0.00681705
288.00   3.64706638   0.00696099
290.00   3.64354392   0.00710694
292.00   3.63999716   0.00725492
294.00   3.63642610   0.00740494
296.00   3.63283074   0.00755701
298.00   3.62921108   0.00771115
300.00   3.62556713   0.00786737
302.00   3.62189888   0.00802568
304.00   3.61820634   0.00818609
306.00   3.61448951   0.00834863
308.00   3.61074839   0.00851331
310.00   3.60698299   0.00868013
312.00   3.60319329   0.00884912
314.00   3.59937932   0.00902029
316.00   3.59554106   0.00919365
318.00   3.59167852   0.00936921
320.00   3.58779170   0.00954699
322.00   3.58388060   0.00972700
324.00   3.57994523   0.00990926
326.00   3.57598559   0.01009378
328.00   3.57200167   0.01028058
330.00   3.56799348   0.01046966
332.00   3.56396102   0.01066104
334.00   3.55990430   0.01085474
336.00   3.55582331   0.01105077
338.00   3.55171805   0.01124915
340.00   3.54758854   0.01144988
342.00   3.54343476   0.01165298
344.00   3.53925673   0.01185847
346.00   3.53505444   0.01206636
348.00   3.53082790   0.01227666
350.00   3.52657710   0.01248938
352.00   3.52230205   0.01270455
354.00   3.51800276   0.01292217
356.00   3.51367922   0.01314226
358.00   3.50933143   0.01336483
360.00   3.50495940   0.01358990
362.00   3.50056313   0.01381747
364.00   3.49614261   0.01404757
366.00   3.49169787   0.01428021
368.00   3.48722888   0.01451540
370.00   3.48273566   0.01475316
372.00   3.47821822   0.01499349
374.00   3.47367654   0.01523641
376.00   3.46911063   0.01548195
378.00   3.46452050   0.01573010
380.00   3.45990614   0.01598089
382.00   3.45526757   0.01623432
384.00   3.45060477   0.01649042
386.00   3.44591776   0.01674919
388.00   3.44120653   0.01701065
390.00   3.43647108   0.01727481
392.00   3.43171143   0.01754170
394.00   3.42692757   0.01781131
396.00   3.42211950   0.01808366
398.00   3.41728722   0.01835878
400.00   3.41243074   0.01863667
402.00   3.40755006   0.01891734
404.00   3.40264518   0.01920081
406.00   3.39771611   0.01948710
408.00   3.39276284   0.01977621
410.00   3.38778538   0.02006817
412.00   3.38278373   0.02036298
414.00   3.37775789   0.02066066
416.00   3.37270786   0.02096122
418.00   3.36763365   0.02126468
420.00   3.36253526   0.02157105
422.00   3.35741270   0.02188034
424.00   3.35226595   0.02219257
426.00   3.34709503   0.02250775
428.00   3.34189994   0.02282589
430.00   3.33668067   0.02314702
432.00   3.33143724   0.02347113
434.00   3.32616965   0.02379826
436.00   3.32087789   0.02412840
438.00   3.31556197   0.02446158
440.00   3.31022189   0.02479781
442.00   3.30485765   0.02513709
444.00   3.29946926   0.02547946
446.00   3.29405672   0.02582491
448.00   3.28862003   0.02617346
450.00   3.28315920   0.02652513
452.00   3.27767422   0.02687993
454.00   3.27216509   0.02723788
456.00   3.26663183   0.02759898
458.00   3.26107443   0.02796325
460.00   3.25549290   0.02833071
462.00   3.24988723   0.02870137
464.00   3.24425743   0.02907524
466.00   3.23860351   0.02945234
468.00   3.23292546   0.02983267
470.00   3.22722329   0.03021626
472.00   3.22149699   0.03060312
474.00   3.21574658   0.03099326
476.00   3.20997206   0.03138669
478.00   3.20417342   0.03178344
480.00   3.19835067   0.03218350
482.00   3.19250382   0.03258690
484.00   3.18663286   0.03299365
486.00   3.18073779   0.03340377
488.00   3.17481863   0.03381726
490.00   3.16887537   0.03423414
492.00   3.16290802   0.03465443
494.00   3.15691657   0.03507813
496.00   3.15090104   0.03550527
498.00   3.14486141   0.03593585
500.00   3.13879771   0.03636989
502.00   3.13270992   0.03680741
504.00   3.12659805   0.03724841
506.00   3.12046211   0.03769291
508.00   3.11430209   0.03814093
510.00   3.10811800   0.03859247
512.00   3.10190985   0.03904756
514.00   3.09567762   0.03950620
516.00   3.08942134   0.03996840
518.00   3.08314099   0.04043419
520.00   3.07683659   0.04090358
522.00   3.07050813   0.04137658
524.00   3.06415563   0.04185320
526.00   3.05777907   0.04233345
528.00   3.05137846   0.04281736
530.00   3.04495382   0.04330493
532.00   3.03850513   0.04379618
534.00   3.03203240   0.04429112
536.00   3.02553564   0.04478977
538.00   3.01901485   0.04529214
540.00   3.01247002   0.04579823
542.00   3.00590117   0.04630808
544.00   2.99930830   0.04682168
546.00   2.99269141   0.04733906
548.00   2.98605049   0.04786022
550.00   2.97938557   0.04838518
552.00   2.97269663   0.04891396
554.00   2.96598368   0.04944657
556.00   2.95924672   0.04998302
558.00   2.95248576   0.05052332
560.00   2.94570080   0.05106749
562.00   2.93889185   0.05161554
564.00   2.93205890   0.05216749
566.00   2.92520195   0.05272335
568.00   2.91832102   0.05328313
570.00   2.91141610   0.05384685
572.00   2.90448720   0.05441452
574.00   2.89753432   0.05498615
576.00   2.89055747   0.05556176
578.00   2.88355664   0.05614136
580.00   2.87653183   0.05672497
582.00   2.86948307   0.05731259
584.00   2.86241033   0.05790425
586.00   2.85531364   0.05849995
588.00   2.84819299   0.05909971
590.00   2.84104838   0.05970354
592.00   2.83387982   0.06031145
594.00   2.82668731   0.06092347
596.00   2.81947085   0.06153960
598.00   2.81223046   0.06215986
600.00   2.80496612   0.06278425
602.00   2.79767785   0.06341280
604.00   2.79036564   0.06404552
606.00   2.78302950   0.06468242
608.00   2.77566944   0.06532351
610.00   2.76828545   0.06596881
612.00   2.76087754   0.06661833
614.00   2.75344572   0.06727209
616.00   2.74598998   0.06793010
618.00   2.73851032   0.06859236
620.00   2.73100677   0.06925890
622.00   2.72347930   0.06992974
624.00   2.71592794   0.07060487
626.00   2.70835268   0.07128432
628.00   2.70075352   0.07196810
630.00   2.69313047   0.07265622
632.00   2.68548354   0.07334870
634.00   2.67781272   0.07404555
636.00   2.67011802   0.07474678
638.00   2.66239944   0.07545241
640.00   2.65465698   0.07616245
642.00   2.64689066   0.07687691
644.00   2.63910046   0.07759581
646.00   2.63128641   0.07831916
648.00   2.62344849   0.07904698
650.00   2.61558671   0.07977927
652.00   2.60770108   0.08051606
654.00   2.59979160   0.08125735
656.00   2.59185827   0.08200316
658.00   2.58390109   0.08275350
660.00   2.57592008   0.08350838
662.00   2.56791523   0.08426783
664.00   2.55988654   0.08503184
666.00   2.55183403   0.08580044
668.00   2.54375769   0.08657364
670.00   2.53565752   0.08735145
672.00   2.52753354   0.08813389
674.00   2.51938574   0.08892097
676.00   2.51121412   0.08971270
678.00   2.50301870   0.09050909
680.00   2.49479947   0.09131017
682.00   2.48655644   0.09211594
684.00   2.47828961   0.09292641
686.00   2.46999899   0.09374161
688.00   2.46168457   0.09456153
690.00   2.45334637   0.09538621
692.00   2.44498438   0.09621564
694.00   2.43659861   0.09704985
696.00   2.42818907   0.09788884
698.00   2.41975575   0.09873264
700.00   2.41129866   0.09958125
702.00   2.40281781   0.10043468
704.00   2.39431320   0.10129295
706.00   2.38578482   0.10215608
708.00   2.37723269   0.10302408
710.00   2.36865681   0.10389695
712.00   2.36005719   0.10477472
714.00   2.35143381   0.10565740
716.00   2.34278670   0.10654500
718.00   2.33411586   0.10743753
720.00   2.32542128   0.10833501
722.00   2.31670297   0.10923744
724.00   2.30796093   0.11014486
726.00   2.29919518   0.11105726
728.00   2.29040571   0.11197466
730.00   2.28159252   0.11289707
732.00   2.27275562   0.11382451
734.00   2.26389502   0.11475699
736.00   2.25501072   0.11569453
738.00   2.24610271   0.11663713
740.00   2.23717102   0.11758481
742.00   2.22821563   0.11853759
744.00   2.21923655   0.11949548
746.00   2.21023380   0.12045848
748.00   2.20120736   0.12142662
750.00   2.19215725   0.12239990
752.00   2.18308347   0.12337835
754.00   2.17398601   0.12436197
756.00   2.16486490   0.12535078
758.00   2.15572013   0.12634478
760.00   2.14655170   0.12734400
762.00   2.13735962   0.12834845
764.00   2.12814389   0.12935813
766.00   2.11890452   0.13037307
768.00   2.10964151   0.13139328
770.00   2.10035486   0.13241877
772.00   2.09104458   0.13344955
774.00   2.08171068   0.13448563
776.00   2.07235315   0.13552704
778.00   2.06297200   0.13657377
780.00   2.05356723   0.13762586
782.00   2.04413886   0.13868330
784.00   2.03468687   0.13974611
786.00   2.02521129   0.14081432
788.00   2.01571210   0.14188792
790.00   2.00618932   0.14296693
792.00   1.99664295   0.14405137
794.00   1.98707299   0.14514124
796.00   1.97747945   0.14623657
798.00   1.96786233   0.14733736
800.00   1.95822163   0.14844363
802.00   1.94855737   0.14955540
804.00   1.93886953   0.15067266
806.00   1.92915814   0.15179545
808.00   1.91942319   0.15292377
810.00   1.90966468   0.15405763
812.00   1.89988263   0.15519704
814.00   1.89007703   0.15634203
816.00   1.88024789   0.15749260
818.00   1.87039521   0.15864877
820.00   1.86051900   0.15981055
822.00   1.85061926   0.16097795
824.00   1.84069600   0.16215099
826.00   1.83074922   0.16332968
828.00   1.82077892   0.16451403
830.00   1.81078511   0.16570406
832.00   1.80076779   0.16689977
834.00   1.79072697   0.16810119
836.00   1.78066266   0.16930832
838.00   1.77057485   0.17052118
840.00   1.76046355   0.17173978
842.00   1.75032876   0.17296414
844.00   1.74017049   0.17419426
846.00   1.72998875   0.17543017
848.00   1.71978353   0.17667187
850.00   1.70955485   0.17791937
852.00   1.69930270   0.17917270
854.00   1.68902710   0.18043186
856.00   1.67872804   0.18169686
858.00   1.66840553   0.18296773
860.00   1.65805957   0.18424447
862.00   1.64769018   0.18552709
864.00   1.63729734   0.18681561
866.00   1.62688107   0.18811004
868.00   1.61644138   0.18941040
870.00   1.60597826   0.19071670
872.00   1.59549173   0.19202894
874.00   1.58498178   0.19334715
876.00   1.57444841   0.19467134
878.00   1.56389165   0.19600152
880.00   1.55331148   0.19733770
882.00   1.54270792   0.19867989
884.00   1.53208096   0.20002812
886.00   1.52143062   0.20138238
888.00   1.51075690   0.20274271
890.00   1.50005979   0.20410910
892.00   1.48933932   0.20548157
894.00   1.47859547   0.20686013
896.00   1.46782826   0.20824481
898.00   1.45703769   0.20963560
900.00   1.44622377   0.21103253
902.00   1.43538649   0.21243560
904.00   1.42452587   0.21384483
906.00   1.41364191   0.21526023
908.00   1.40273461   0.21668182
910.00   1.39180398   0.21810961
912.00   1.38085003   0.21954361
914.00   1.36987275   0.22098383
916.00   1.35887215   0.22243029
918.00   1.34784824   0.22388300
920.00   1.33680103   0.22534197
922.00   1.32573050   0.22680721
924.00   1.31463668   0.22827875
926.00   1.30351957   0.22975659
928.00   1.29237917   0.23124074
930.00   1.28121548   0.23273122
932.00   1.27002851   0.23422804
934.00   1.25881827   0.23573121
936.00   1.24758476   0.23724075
938.00   1.23632798   0.23875667
940.00   1.22504794   0.24027899
942.00   1.21374465   0.24180770
944.00   1.20241811   0.24334284
946.00   1.19106832   0.24488440
948.00   1.17969528   0.24643241
950.00   1.16829902   0.24798688
952.00   1.15687952   0.24954781
954.00   1.14543679   0.25111523
956.00   1.13397085   0.25268914
958.00   1.12248168   0.25426956
960.00   1.11096931   0.25585650
962.00   1.09943372   0.25744998
964.00   1.08787494   0.25905000
966.00   1.07629296   0.26065658
968.00   1.06468779   0.26226974
970.00   1.05305943   0.26388948
972.00   1.04140788   0.26551581
974.00   1.02973316   0.26714876
976.00   1.01803527   0.26878833
978.00   1.00631421   0.27043454
980.00   0.99456999   0.27208740
982.00   0.98280261   0.27374692
984.00   0.97101208   0.27541311
986.00   0.95919841   0.27708599
988.00   0.94736159   0.27876558
990.00   0.93550163   0.28045187
992.00   0.92361854   0.28214489
994.00   0.91171233   0.28384466
996.00   0.89978299   0.28555117
998.00   0.88783054   0.28726445
1000.00   0.87585497   0.28898450
1002.00   0.86385630   0.29071134
1004.00   0.85183453   0.29244499
1006.00   0.83978966   0.29418545
1008.00   0.82772170   0.29593274
1010.00   0.81563065   0.29768687
1012.00   0.80351652   0.29944786
1014.00   0.79137932   0.30121571
1016.00   0.77921905   0.30299044
1018.00   0.76703571   0.30477206
1020.00   0.75482931   0.30656059
1022.00   0.74259986   0.30835604
1024.00   0.73034735   0.31015841
1026.00   0.71807181   0.31196773
1028.00   0.70577322   0.31378400
1030.00   0.69345160   0.31560724
1032.00   0.68110695   0.31743746
1034.00   0.66873927   0.31927468
1036.00   0.65634858   0.32111890
1038.00   0.64393488   0.32297014
1040.00   0.63149817   0.32482841
1042.00   0.61903845   0.32669373
1044.00   0.60655574   0.32856610
1046.00   0.59405004   0.33044554
1048.00   0.58152135   0.33233206
1050.00   0.56896968   0.33422568
1052.00   0.55639503   0.33612641
1054.00   0.54379741   0.33803426
1056.00   0.53117683   0.33994923
1058.00   0.51853329   0.34187136
1060.00   0.50586680   0.34380064
1062.00   0.49317735   0.34573709
1064.00   0.48046496   0.34768073
1066.00   0.46772964   0.34963156
1068.00   0.45497138   0.35158960
1070.00   0.44219019   0.35355486
1072.00   0.42938608   0.35552736
1074.00   0.41655906   0.35750710
1076.00   0.40370912   0.35949410
1078.00   0.39083628   0.36148837
1080.00   0.37794054   0.36348992
1082.00   0.36502190   0.36549877
1084.00   0.35208037   0.36751493
1086.00   0.33911597   0.36953841
1088.00   0.32612868   0.37156923
1090.00   0.31311852   0.37360739
1092.00   0.30008549   0.37565291
1094.00   0.28702960   0.37770580
1096.00   0.27395086   0.37976608
1098.00   0.26084926   0.38183376
1100.00   0.24772482   0.38390884
1102.00   0.23457754   0.38599134
1104.00   0.22140743   0.38808128
1106.00   0.20821449   0.39017867
1108.00   0.19499873   0.39228351
1110.00   0.18176015   0.39439583
1112.00   0.16849875   0.39651563
1114.00   0.15521456   0.39864293
1116.00   0.14190756   0.40077774
1118.00   0.12857777   0.40292006
1120.00   0.11522518   0.40506993
1122.00   0.10184982   0.40722734
1124.00   0.08845168   0.40939230
1126.00   0.07503076   0.41156484
1128.00   0.06158708   0.41374497
1130.00   0.04812064   0.41593269
1132.00   0.03463145   0.41812802
1134.00   0.02111950   0.42033097
1136.00   0.00758481   0.42254155
1138.00  -0.00597261   0.42475978
1140.00  -0.01955277   0.42698567
1142.00  -0.03315565   0.42921923
1144.00  -0.04678126   0.43146047
1146.00  -0.06042957   0.43370941
1148.00  -0.07410060   0.43596606
1150.00  -0.08779433   0.43823042
1152.00  -0.10151076   0.44050252
1154.00  -0.11524988   0.44278237
1156.00  -0.12901168   0.44506997
1158.00  -0.14279617   0.44736535
1160.00  -0.15660333   0.44966850
1162.00  -0.17043316   0.45197945
1164.00  -0.18428565   0.45429821
1166.00  -0.19816079   0.45662478
1168.00  -0.21205859   0.45895919
1170.00  -0.22597903   0.46130144
1172.00  -0.23992211   0.46365155
1174.00  -0.25388782   0.46600953
1176.00  -0.26787616   0.46837538
1178.00  -0.28188713   0.47074914
1180.00  -0.29592070   0.47313079
1182.00  -0.30997689   0.47552037
1184.00  -0.32405568   0.47791787
1186.00  -0.33815707   0.48032332
1188.00  -0.35228105   0.48273672
1190.00  -0.36642761   0.48515809
1192.00  -0.38059676   0.48758744
1194.00  -0.39478847   0.49002478
1196.00  -0.40900276   0.49247012
1198.00  -0.42323961   0.49492348
1200.00  -0.43749901   0.49738487
1202.00  -0.45178096   0.49985430
1204.00  -0.46608546   0.50233178
1206.00  -0.48041249   0.50481732
1208.00  -0.49476206   0.50731095
1210.00  -0.50913415   0.50981266
1212.00  -0.52352876   0.51232248
1214.00  -0.53794589   0.51484040
1216.00  -0.55238552   0.51736646
1218.00  -0.56684765   0.51990065
1220.00  -0.58133228   0.52244300
1222.00  -0.59583940   0.52499350
1224.00  -0.61036900   0.52755218
1226.00  -0.62492107   0.53011905
1228.00  -0.63949562   0.53269412
1230.00  -0.65409263   0.53527740
1232.00  -0.66871210   0.53786890
1234.00  -0.68335403   0.54046864
1236.00  -0.69801840   0.54307662
1238.00  -0.71270521   0.54569287
1240.00  -0.72741445   0.54831739
1242.00  -0.74214612   0.55095019
1244.00  -0.75690022   0.55359129
1246.00  -0.77167672   0.55624069
1248.00  -0.78647564   0.55889842
1250.00  -0.80129696   0.56156448
1252.00  -0.81614068   0.56423889
1254.00  -0.83100679   0.56692165
1256.00  -0.84589528   0.56961278
1258.00  -0.86080615   0.57231229
1260.00  -0.87573939   0.57502020
1262.00  -0.89069499   0.57773651
1264.00  -0.90567296   0.58046123
1266.00  -0.92067328   0.58319439
1268.00  -0.93569594   0.58593599
1270.00  -0.95074095   0.58868604
1272.00  -0.96580829   0.59144456
1274.00  -0.98089795   0.59421155
1276.00  -0.99600994   0.59698703
1278.00  -1.01114424   0.59977102
1280.00  -1.02630085   0.60256352
1282.00  -1.04147977   0.60536454
1284.00  -1.05668098   0.60817411
1286.00  -1.07190448   0.61099222
1288.00  -1.08715026   0.61381889
1290.00  -1.10241832   0.61665414
1292.00  -1.11770865   0.61949797
1294.00  -1.13302124   0.62235040
1296.00  -1.14835609   0.62521144
1298.00  -1.16371319   0.62808110
