wavelength(nm)         real         imag
100.00   3.88364679   0.00015627
102.00   3.88298619   0.00016583
104.00   3.88231250   0.00017578
106.00   3.88162574   0.00018612
108.00   3.88092591   0.00019685
110.00   3.88021300   0.00020799
112.00   3.87948701   0.00021954
114.00   3.87874795   0.00023151
116.00   3.87799582   0.00024391
118.00   3.87723061   0.00025675
120.00   3.87645233   0.00027002
122.00   3.87566097   0.00028375
124.00   3.87485654   0.00029793
126.00   3.87403904   0.00031258
128.00   3.87320847   0.00032770
130.00   3.87236482   0.00034330
132.00   3.87150810   0.00035939
134.00   3.87063831   0.00037597
136.00   3.86975545   0.00039306
138.00   3.86885952   0.00041065
140.00   3.86795052   0.00042877
142.00   3.86702845   0.00044740
144.00   3.86609331   0.00046657
146.00   3.86514511   0.00048628
148.00   3.86418383   0.00050654
150.00   3.86320948   0.00052735
152.00   3.86222207   0.00054872
154.00   3.86122159   0.00057067
156.00   3.86020804   0.00059319
158.00   3.85918143   0.00061629
160.00   3.85814175   0.00063999
162.00   3.85708901   0.00066429
164.00   3.85602320   0.00068919
166.00   3.85494432   0.00071471
168.00   3.85385239   0.00074085
170.00   3.85274739   0.00076762
172.00   3.85162932   0.00079503
174.00   3.85049819   0.00082308
176.00   3.84935401   0.00085178
178.00   3.84819676   0.00088115
180.00   3.84702644   0.00091118
182.00   3.84584307   0.00094188
184.00   3.84464664   0.00097327
186.00   3.84343715   0.00100535
188.00   3.84221460   0.00103812
190.00   3.84097899   0.00107160
192.00   3.83973032   0.00110579
194.00   3.83846860   0.00114070
196.00   3.83719382   0.00117633
198.00   3.83590598   0.00121270
200.00   3.83460508   0.00124982
202.00   3.83329114   0.00128768
204.00   3.83196413   0.00132629
206.00   3.83062408   0.00136568
208.00   3.82927097   0.00140583
210.00   3.82790480   0.00144676
212.00   3.82652559   0.00148848
214.00   3.82513332   0.00153100
216.00   3.82372800   0.00157431
218.00   3.82230964   0.00161844
220.00   3.82087822   0.00166338
222.00   3.81943375   0.00170914
224.00   3.81797624   0.00175574
226.00   3.81650567   0.00180317
228.00   3.81502206   0.00185145
230.00   3.81352541   0.00190059
232.00   3.81201570   0.00195059
234.00   3.81049296   0.00200145
236.00   3.80895716   0.00205319
238.00   3.80740833   0.00210582
240.00   3.80584645   0.00215933
242.00   3.80427153   0.00221375
244.00   3.80268356   0.00226907
246.00   3.80108256   0.00232530
248.00   3.79946851   0.00238246
250.00   3.79784143   0.00244054
252.00   3.79620130   0.00249956
254.00   3.79454814   0.00255953
256.00   3.79288194   0.00262044
258.00   3.79120270   0.00268231
260.00   3.78951043   0.00274515
262.00   3.78780512   0.00280896
264.00   3.78608678   0.00287376
266.00   3.78435540   0.00293954
268.00   3.78261099   0.00300631
270.00   3.78085355   0.00307409
272.00   3.77908307   0.00314288
274.00   3.77729957   0.00321269
276.00   3.77550303   0.00328352
278.00   3.77369347   0.00335539
280.00   3.77187088   0.00342829
282.00   3.77003526   0.00350225
284.00   3.76818661   0.00357725
286.00   3.76632494   0.00365333
288.00   3.76445024   0.00373047
290.00   3.76256252   0.00380869
292.00   3.76066177   0.00388799
294.00   3.75874800   0.00396839
296.00   3.75682121   0.00404988
298.00   3.75488140   0.00413248
300.00   3.75292857   0.00421620
302.00   3.75096271   0.00430104
304.00   3.74898384   0.00438701
306.00   3.74699196   0.00447412
308.00   3.74498705   0.00456237
310.00   3.74296913   0.00465177
312.00   3.74093819   0.00474234
314.00   3.73889424   0.00483407
316.00   3.73683728   0.00492697
318.00   3.73476731   0.00502106
320.00   3.73268432   0.00511633
322.00   3.73058832   0.00521280
324.00   3.72847932   0.00531048
326.00   3.72635730   0.00540936
328.00   3.72422228   0.00550947
330.00   3.72207425   0.00561080
332.00   3.71991321   0.00571336
334.00   3.71773917   0.00581717
336.00   3.71555212   0.00592222
338.00   3.71335208   0.00602854
340.00   3.71113903   0.00613611
342.00   3.70891298   0.00624495
344.00   3.70667392   0.00635508
346.00   3.70442187   0.00646649
348.00   3.70215682   0.00657919
350.00   3.69987878   0.00669319
352.00   3.69758774   0.00680850
354.00   3.69528370   0.00692513
356.00   3.69296667   0.00704307
358.00   3.69063664   0.00716235
360.00   3.68829363   0.00728297
362.00   3.68593762   0.00740493
364.00   3.68356862   0.00752824
366.00   3.68118663   0.00765291
368.00   3.67879166   0.00777895
370.00   3.67638370   0.00790637
372.00   3.67396275   0.00803517
374.00   3.67152882   0.00816535
376.00   3.66908190   0.00829694
378.00   3.66662200   0.00842992
380.00   3.66414912   0.00856432
382.00   3.66166326   0.00870014
384.00   3.65916442   0.00883739
386.00   3.65665260   0.00897606
388.00   3.65412780   0.00911618
390.00   3.65159003   0.00925775
392.00   3.64903928   0.00940078
394.00   3.64647556   0.00954527
396.00   3.64389886   0.00969122
398.00   3.64130919   0.00983866
400.00   3.63870656   0.00998758
402.00   3.63609095   0.01013800
404.00   3.63346237   0.01028992
406.00   3.63082083   0.01044334
408.00   3.62816632   0.01059828
410.00   3.62549885   0.01075474
412.00   3.62281841   0.01091273
414.00   3.62012501   0.01107226
416.00   3.61741865   0.01123334
418.00   3.61469933   0.01139596
420.00   3.61196705   0.01156015
422.00   3.60922181   0.01172590
424.00   3.60646362   0.01189323
426.00   3.60369247   0.01206214
428.00   3.60090836   0.01223263
430.00   3.59811131   0.01240473
432.00   3.59530130   0.01257843
434.00   3.59247834   0.01275373
436.00   3.58964243   0.01293066
438.00   3.58679357   0.01310922
440.00   3.58393177   0.01328940
442.00   3.58105702   0.01347123
444.00   3.57816932   0.01365471
446.00   3.57526869   0.01383984
448.00   3.57235511   0.01402663
450.00   3.56942859   0.01421509
452.00   3.56648913   0.01440524
454.00   3.56353673   0.01459706
456.00   3.56057140   0.01479058
458.00   3.55759313   0.01498580
460.00   3.55460193   0.01518272
462.00   3.55159779   0.01538136
464.00   3.54858073   0.01558172
466.00   3.54555073   0.01578381
468.00   3.54250780   0.01598764
470.00   3.53945195   0.01619321
472.00   3.53638317   0.01640053
474.00   3.53330147   0.01660961
476.00   3.53020684   0.01682046
478.00   3.52709929   0.01703307
480.00   3.52397882   0.01724747
482.00   3.52084543   0.01746366
484.00   3.51769912   0.01768164
486.00   3.51453989   0.01790143
488.00   3.51136775   0.01812302
490.00   3.50818270   0.01834643
492.00   3.50498473   0.01857167
494.00   3.50177385   0.01879874
496.00   3.49855006   0.01902764
498.00   3.49531337   0.01925840
500.00   3.49206376   0.01949100
502.00   3.48880125   0.01972547
504.00   3.48552584   0.01996181
506.00   3.48223752   0.02020002
508.00   3.47893631   0.02044012
510.00   3.47562219   0.02068211
512.00   3.47229517   0.02092599
514.00   3.46895526   0.02117178
516.00   3.46560245   0.02141948
518.00   3.46223675   0.02166911
520.00   3.45885815   0.02192066
522.00   3.45546667   0.02217414
524.00   3.45206229   0.02242956
526.00   3.44864503   0.02268694
528.00   3.44521488   0.02294627
530.00   3.44177184   0.02320756
532.00   3.43831592   0.02347083
534.00   3.43484712   0.02373607
536.00   3.43136544   0.02400330
538.00   3.42787088   0.02427253
540.00   3.42436344   0.02454375
542.00   3.42084313   0.02481698
544.00   3.41730994   0.02509223
546.00   3.41376387   0.02536949
548.00   3.41020494   0.02564879
550.00   3.40663314   0.02593012
552.00   3.40304846   0.02621350
554.00   3.39945092   0.02649893
556.00   3.39584052   0.02678642
558.00   3.39221725   0.02707597
560.00   3.38858112   0.02736760
562.00   3.38493213   0.02766131
564.00   3.38127028   0.02795710
566.00   3.37759557   0.02825499
568.00   3.37390801   0.02855499
570.00   3.37020759   0.02885709
572.00   3.36649432   0.02916131
574.00   3.36276820   0.02946765
576.00   3.35902923   0.02977613
578.00   3.35527741   0.03008674
580.00   3.35151275   0.03039950
582.00   3.34773524   0.03071442
584.00   3.34394489   0.03103149
586.00   3.34014170   0.03135073
588.00   3.33632567   0.03167215
590.00   3.33249680   0.03199575
592.00   3.32865509   0.03232154
594.00   3.32480055   0.03264952
596.00   3.32093318   0.03297971
598.00   3.31705297   0.03331212
600.00   3.31315994   0.03364674
602.00   3.30925407   0.03398358
604.00   3.30533539   0.03432266
606.00   3.30140387   0.03466398
608.00   3.29745954   0.03500755
610.00   3.29350238   0.03535337
612.00   3.28953241   0.03570146
614.00   3.28554962   0.03605181
616.00   3.28155401   0.03640445
618.00   3.27754558   0.03675936
620.00   3.27352435   0.03711657
622.00   3.26949030   0.03747607
624.00   3.26544345   0.03783789
626.00   3.26138379   0.03820201
628.00   3.25731132   0.03856845
630.00   3.25322605   0.03893723
632.00   3.24912798   0.03930833
634.00   3.24501710   0.03968178
636.00   3.24089343   0.04005758
638.00   3.23675697   0.04043573
640.00   3.23260770   0.04081625
642.00   3.22844565   0.04119914
644.00   3.22427080   0.04158440
646.00   3.22008317   0.04197206
648.00   3.21588275   0.04236210
650.00   3.21166954   0.04275454
652.00   3.20744355   0.04314939
654.00   3.20320477   0.04354666
656.00   3.19895322   0.04394635
658.00   3.19468889   0.04434846
660.00   3.19041178   0.04475301
662.00   3.18612190   0.04516001
664.00   3.18181924   0.04556945
666.00   3.17750381   0.04598135
668.00   3.17317562   0.04639572
670.00   3.16883465   0.04681255
672.00   3.16448093   0.04723187
674.00   3.16011443   0.04765367
676.00   3.15573518   0.04807797
678.00   3.15134317   0.04850477
680.00   3.14693840   0.04893407
682.00   3.14252087   0.04936589
684.00   3.13809059   0.04980023
686.00   3.13364756   0.05023710
688.00   3.12919178   0.05067651
690.00   3.12472325   0.05111846
692.00   3.12024197   0.05156296
694.00   3.11574795   0.05201003
696.00   3.11124119   0.05245965
698.00   3.10672169   0.05291185
700.00   3.10218945   0.05336663
702.00   3.09764447   0.05382399
704.00   3.09308676   0.05428395
706.00   3.08851631   0.05474651
708.00   3.08393314   0.05521168
710.00   3.07933723   0.05567946
712.00   3.07472860   0.05614987
714.00   3.07010725   0.05662290
716.00   3.06547317   0.05709857
718.00   3.06082638   0.05757689
720.00   3.05616686   0.05805786
722.00   3.05149463   0.05854148
724.00   3.04680968   0.05902778
726.00   3.04211202   0.05951674
728.00   3.03740165   0.06000838
730.00   3.03267857   0.06050272
732.00   3.02794279   0.06099974
734.00   3.02319430   0.06149947
736.00   3.01843311   0.06200190
738.00   3.01365922   0.06250705
740.00   3.00887263   0.06301493
742.00   3.00407334   0.06352553
744.00   2.99926136   0.06403887
746.00   2.99443669   0.06455495
748.00   2.98959933   0.06507379
750.00   2.98474928   0.06559538
752.00   2.97988654   0.06611974
754.00   2.97501113   0.06664687
756.00   2.97012303   0.06717679
758.00   2.96522225   0.06770948
760.00   2.96030879   0.06824498
762.00   2.95538266   0.06878327
764.00   2.95044385   0.06932437
766.00   2.94549238   0.06986829
768.00   2.94052823   0.07041503
770.00   2.93555142   0.07096460
772.00   2.93056195   0.07151700
774.00   2.92555981   0.07207225
776.00   2.92054501   0.07263035
778.00   2.91551756   0.07319131
780.00   2.91047745   0.07375513
782.00   2.90542468   0.07432182
784.00   2.90035927   0.07489140
786.00   2.89528120   0.07546386
788.00   2.89019049   0.07603921
790.00   2.88508713   0.07661747
792.00   2.87997113   0.07719863
794.00   2.87484249   0.07778270
796.00   2.86970121   0.07836970
798.00   2.86454729   0.07895963
800.00   2.85938075   0.07955249
802.00   2.85420156   0.08014830
804.00   2.84900975   0.08074705
806.00   2.84380532   0.08134876
808.00   2.83858826   0.08195344
810.00   2.83335857   0.08256109
812.00   2.82811627   0.08317171
814.00   2.82286134   0.08378532
816.00   2.81759380   0.08440193
818.00   2.81231365   0.08502153
820.00   2.80702089   0.08564414
822.00   2.80171551   0.08626976
824.00   2.79639753   0.08689841
826.00   2.79106695   0.08753008
828.00   2.78572376   0.08816478
830.00   2.78036798   0.08880253
832.00   2.77499959   0.08944333
834.00   2.76961861   0.09008718
836.00   2.76422504   0.09073409
838.00   2.75881888   0.09138408
840.00   2.75340013   0.09203714
842.00   2.74796879   0.09269328
844.00   2.74252487   0.09335252
846.00   2.73706837   0.09401486
848.00   2.73159929   0.09468029
850.00   2.72611763   0.09534885
852.00   2.72062340   0.09602052
854.00   2.71511659   0.09669531
856.00   2.70959722   0.09737324
858.00   2.70406528   0.09805431
860.00   2.69852077   0.09873853
862.00   2.69296370   0.09942590
864.00   2.68739408   0.10011643
866.00   2.68181189   0.10081013
868.00   2.67621715   0.10150701
870.00   2.67060985   0.10220706
872.00   2.66499001   0.10291031
874.00   2.65935762   0.10361675
876.00   2.65371268   0.10432640
878.00   2.64805520   0.10503925
880.00   2.64238518   0.10575533
882.00   2.63670262   0.10647462
884.00   2.63100752   0.10719715
886.00   2.62529989   0.10792292
888.00   2.61957973   0.10865193
890.00   2.61384704   0.10938419
892.00   2.60810183   0.11011971
894.00   2.60234409   0.11085850
896.00   2.59657383   0.11160056
898.00   2.59079105   0.11234590
900.00   2.58499576   0.11309453
902.00   2.57918795   0.11384645
904.00   2.57336763   0.11460167
906.00   2.56753480   0.11536020
908.00   2.56168947   0.11612205
910.00   2.55583163   0.11688721
912.00   2.54996129   0.11765571
914.00   2.54407845   0.11842754
916.00   2.53818312   0.11920271
918.00   2.53227529   0.11998123
920.00   2.52635497   0.12076311
922.00   2.52042216   0.12154835
924.00   2.51447687   0.12233696
926.00   2.50851909   0.12312895
928.00   2.50254883   0.12392432
930.00   2.49656610   0.12472309
932.00   2.49057088   0.12552525
934.00   2.48456320   0.12633081
936.00   2.47854304   0.12713979
938.00   2.47251042   0.12795219
940.00   2.46646533   0.12876801
942.00   2.46040778   0.12958727
944.00   2.45433776   0.13040996
946.00   2.44825529   0.13123610
948.00   2.44216037   0.13206570
950.00   2.43605299   0.13289875
952.00   2.42993316   0.13373527
954.00   2.42380088   0.13457527
956.00   2.41765616   0.13541874
958.00   2.41149900   0.13626571
960.00   2.40532940   0.13711617
962.00   2.39914736   0.13797013
964.00   2.39295289   0.13882759
966.00   2.38674598   0.13968858
968.00   2.38052665   0.14055308
970.00   2.37429489   0.14142112
972.00   2.36805071   0.14229269
974.00   2.36179410   0.14316780
976.00   2.35552508   0.14404647
978.00   2.34924364   0.14492869
980.00   2.34294979   0.14581447
982.00   2.33664353   0.14670382
984.00   2.33032486   0.14759676
986.00   2.32399379   0.14849327
988.00   2.31765032   0.14939338
990.00   2.31129444   0.15029708
992.00   2.30492617   0.15120439
994.00   2.29854551   0.15211531
996.00   2.29215245   0.15302985
998.00   2.28574701   0.15394801
1000.00   2.27932918   0.15486980
1002.00   2.27289896   0.15579524
1004.00   2.26645637   0.15672432
1006.00   2.26000140   0.15765705
1008.00   2.25353405   0.15859344
1010.00   2.24705434   0.15953350
1012.00   2.24056225   0.16047723
1014.00   2.23405780   0.16142464
1016.00   2.22754098   0.16237573
1018.00   2.22101180   0.16333052
1020.00   2.21447026   0.16428901
1022.00   2.20791637   0.16525121
1024.00   2.20135013   0.16621712
1026.00   2.19477154   0.16718675
1028.00   2.18818059   0.16816011
1030.00   2.18157731   0.16913721
1032.00   2.17496168   0.17011804
1034.00   2.16833372   0.17110263
1036.00   2.16169342   0.17209096
1038.00   2.15504078   0.17308306
1040.00   2.14837582   0.17407893
1042.00   2.14169853   0.17507857
1044.00   2.13500891   0.17608199
1046.00   2.12830698   0.17708921
1048.00   2.12159272   0.17810021
1050.00   2.11486615   0.17911502
1052.00   2.10812727   0.18013364
1054.00   2.10137607   0.18115608
1056.00   2.09461257   0.18218234
1058.00   2.08783677   0.18321242
1060.00   2.08104866   0.18424634
1062.00   2.07424825   0.18528411
1064.00   2.06743555   0.18632572
1066.00   2.06061056   0.18737120
1068.00   2.05377327   0.18842053
1070.00   2.04692370   0.18947373
1072.00   2.04006185   0.19053081
1074.00   2.03318771   0.19159178
1076.00   2.02630130   0.19265663
1078.00   2.01940261   0.19372538
1080.00   2.01249164   0.19479804
1082.00   2.00556841   0.19587460
1084.00   1.99863291   0.19695508
1086.00   1.99168515   0.19803948
1088.00   1.98472513   0.19912782
1090.00   1.97775285   0.20022009
1092.00   1.97076832   0.20131631
1094.00   1.96377153   0.20241648
1096.00   1.95676249   0.20352060
1098.00   1.94974121   0.20462869
1100.00   1.94270769   0.20574075
1102.00   1.93566192   0.20685678
1104.00   1.92860392   0.20797680
1106.00   1.92153369   0.20910081
1108.00   1.91445122   0.21022882
1110.00   1.90735653   0.21136083
1112.00   1.90024961   0.21249686
1114.00   1.89313047   0.21363690
1116.00   1.88599911   0.21478096
1118.00   1.87885554   0.21592906
1120.00   1.87169975   0.21708119
1122.00   1.86453175   0.21823737
1124.00   1.85735155   0.21939760
1126.00   1.85015914   0.22056189
1128.00   1.84295453   0.22173024
1130.00   1.83573773   0.22290266
1132.00   1.82850873   0.22407916
1134.00   1.82126754   0.22525974
1136.00   1.81401416   0.22644442
1138.00   1.80674859   0.22763319
1140.00   1.79947084   0.22882607
1142.00   1.79218092   0.23002306
1144.00   1.78487881   0.23122416
1146.00   1.77756454   0.23242939
1148.00   1.77023809   0.23363875
1150.00   1.76289948   0.23485225
1152.00   1.75554870   0.23606989
1154.00   1.74818576   0.23729168
1156.00   1.74081067   0.23851763
1158.00   1.73342342   0.23974775
1160.00   1.72602402   0.24098203
1162.00   1.71861247   0.24222050
1164.00   1.71118878   0.24346314
1166.00   1.70375294   0.24470998
1168.00   1.69630497   0.24596101
1170.00   1.68884486   0.24721625
1172.00   1.68137262   0.24847570
1174.00   1.67388825   0.24973936
1176.00   1.66639175   0.25100725
1178.00   1.65888313   0.25227937
1180.00   1.65136239   0.25355572
1182.00   1.64382953   0.25483632
1184.00   1.63628456   0.25612117
1186.00   1.62872748   0.25741027
1188.00   1.62115829   0.25870364
1190.00   1.61357700   0.26000127
1192.00   1.60598361   0.26130319
1194.00   1.59837812   0.26260938
1196.00   1.59076054   0.26391987
1198.00   1.58313086   0.26523465
1200.00   1.57548910   0.26655373
1202.00   1.56783525   0.26787712
1204.00   1.56016932   0.26920483
1206.00   1.55249132   0.27053686
1208.00   1.54480123   0.27187322
1210.00   1.53709908   0.27321392
1212.00   1.52938486   0.27455895
1214.00   1.52165857   0.27590834
1216.00   1.51392022   0.27726207
1218.00   1.50616981   0.27862018
1220.00   1.49840735   0.27998264
1222.00   1.49063284   0.28134949
1224.00   1.48284627   0.28272071
1226.00   1.47504766   0.28409632
1228.00   1.46723701   0.28547633
1230.00   1.45941432   0.28686073
1232.00   1.45157959   0.28824955
1234.00   1.44373283   0.28964277
1236.00   1.43587404   0.29104042
1238.00   1.42800323   0.29244249
1240.00   1.42012039   0.29384900
1242.00   1.41222554   0.29525995
1244.00   1.40431866   0.29667534
1246.00   1.39639978   0.29809518
1248.00   1.38846889   0.29951949
1250.00   1.38052599   0.30094826
1252.00   1.37257108   0.30238150
1254.00   1.36460418   0.30381922
1256.00   1.35662528   0.30526142
1258.00   1.34863439   0.30670812
1260.00   1.34063151   0.30815931
1262.00   1.33261665   0.30961501
1264.00   1.32458980   0.31107522
1266.00   1.31655098   0.31253995
1268.00   1.30850017   0.31400920
1270.00   1.30043740   0.31548298
1272.00   1.29236265   0.31696130
1274.00   1.28427594   0.31844416
1276.00   1.27617727   0.31993157
1278.00   1.26806664   0.32142354
1280.00   1.25994406   0.32292007
1282.00   1.25180952   0.32442116
1284.00   1.24366303   0.32592684
1286.00   1.23550460   0.32743709
1288.00   1.22733423   0.32895194
1290.00   1.21915191   0.33047138
1292.00   1.21095767   0.33199542
1294.00   1.20275149   0.33352406
1296.00   1.19453338   0.33505732
1298.00   1.18630335   0.33659520
