wavelength(nm)         real         imag
100.00   3.72078830   0.00171253
102.00   3.71354884   0.00181734
104.00   3.70616607   0.00192635
106.00   3.69864001   0.00203963
108.00   3.69097065   0.00215726
110.00   3.68315801   0.00227933
112.00   3.67520207   0.00240593
114.00   3.66710285   0.00253712
116.00   3.65886035   0.00267300
118.00   3.65047458   0.00281364
120.00   3.64194553   0.00295913
122.00   3.63327321   0.00310956
124.00   3.62445762   0.00326499
126.00   3.61549878   0.00342552
128.00   3.60639667   0.00359123
130.00   3.59715132   0.00376219
132.00   3.58776271   0.00393850
134.00   3.57823085   0.00412023
136.00   3.56855576   0.00430746
138.00   3.55873743   0.00450028
140.00   3.54877586   0.00469877
142.00   3.53867107   0.00490301
144.00   3.52842305   0.00511309
146.00   3.51803182   0.00532908
148.00   3.50749736   0.00555106
150.00   3.49681970   0.00577913
152.00   3.48599883   0.00601336
154.00   3.47503477   0.00625383
156.00   3.46392750   0.00650063
158.00   3.45267704   0.00675383
160.00   3.44128340   0.00701353
162.00   3.42974657   0.00727979
164.00   3.41806657   0.00755271
166.00   3.40624340   0.00783237
168.00   3.39427706   0.00811884
170.00   3.38216756   0.00841221
172.00   3.36991491   0.00871256
174.00   3.35751910   0.00901998
176.00   3.34498015   0.00933454
178.00   3.33229806   0.00965633
180.00   3.31947284   0.00998543
182.00   3.30650449   0.01032193
184.00   3.29339302   0.01066589
186.00   3.28013843   0.01101741
188.00   3.26674073   0.01137657
190.00   3.25319992   0.01174345
192.00   3.23951602   0.01211813
194.00   3.22568902   0.01250069
196.00   3.21171893   0.01289121
198.00   3.19760577   0.01328979
200.00   3.18334953   0.01369649
202.00   3.16895022   0.01411141
204.00   3.15440784   0.01453461
206.00   3.13972242   0.01496619
208.00   3.12489394   0.01540623
210.00   3.10992242   0.01585481
212.00   3.09480786   0.01631200
214.00   3.07955028   0.01677790
216.00   3.06414967   0.01725259
218.00   3.04860605   0.01773614
220.00   3.03291941   0.01822863
222.00   3.01708977   0.01873016
224.00   3.00111714   0.01924080
226.00   2.98500152   0.01976063
228.00   2.96874292   0.02028973
230.00   2.95234134   0.02082820
232.00   2.93579679   0.02137610
234.00   2.91910929   0.02193352
236.00   2.90227883   0.02250055
238.00   2.88530542   0.02307726
240.00   2.86818908   0.02366374
242.00   2.85092981   0.02426006
244.00   2.83352762   0.02486631
246.00   2.81598251   0.02548258
248.00   2.79829449   0.02610893
250.00   2.78046357   0.02674547
252.00   2.76248976   0.02739226
254.00   2.74437306   0.02804938
256.00   2.72611349   0.02871693
258.00   2.70771105   0.02939498
260.00   2.68916575   0.03008361
262.00   2.67047760   0.03078291
264.00   2.65164661   0.03149295
266.00   2.63267277   0.03221383
268.00   2.61355611   0.03294561
270.00   2.59429664   0.03368839
272.00   2.57489435   0.03444224
274.00   2.55534926   0.03520724
276.00   2.53566137   0.03598348
278.00   2.51583070   0.03677104
280.00   2.49585725   0.03757000
282.00   2.47574104   0.03838044
284.00   2.45548207   0.03920245
286.00   2.43508034   0.04003610
288.00   2.41453588   0.04088148
290.00   2.39384868   0.04173866
292.00   2.37301876   0.04260774
294.00   2.35204613   0.04348879
296.00   2.33093079   0.04438189
298.00   2.30967276   0.04528712
300.00   2.28827204   0.04620457
302.00   2.26672864   0.04713432
304.00   2.24504258   0.04807644
306.00   2.22321386   0.04903103
308.00   2.20124249   0.04999816
310.00   2.17912848   0.05097792
312.00   2.15687184   0.05197037
314.00   2.13447258   0.05297562
316.00   2.11193072   0.05399373
318.00   2.08924625   0.05502480
320.00   2.06641919   0.05606889
322.00   2.04344955   0.05712610
324.00   2.02033735   0.05819650
326.00   1.99708258   0.05928017
328.00   1.97368527   0.06037721
330.00   1.95014541   0.06148768
332.00   1.92646303   0.06261167
334.00   1.90263812   0.06374926
336.00   1.87867071   0.06490054
338.00   1.85456080   0.06606557
340.00   1.83030841   0.06724446
342.00   1.80591353   0.06843727
344.00   1.78137619   0.06964408
346.00   1.75669640   0.07086499
348.00   1.73187416   0.07210007
350.00   1.70690949   0.07334939
352.00   1.68180239   0.07461306
354.00   1.65655288   0.07589113
356.00   1.63116097   0.07718370
358.00   1.60562668   0.07849085
360.00   1.57995000   0.07981266
362.00   1.55413096   0.08114920
364.00   1.52816956   0.08250057
366.00   1.50206581   0.08386684
368.00   1.47581973   0.08524809
370.00   1.44943133   0.08664441
372.00   1.42290062   0.08805587
374.00   1.39622761   0.08948256
376.00   1.36941232   0.09092455
378.00   1.34245475   0.09238194
380.00   1.31535491   0.09385479
382.00   1.28811283   0.09534320
384.00   1.26072850   0.09684724
386.00   1.23320194   0.09836699
388.00   1.20553317   0.09990253
390.00   1.17772220   0.10145396
392.00   1.14976903   0.10302133
394.00   1.12167369   0.10460475
396.00   1.09343617   0.10620429
398.00   1.06505651   0.10782002
400.00   1.03653470   0.10945204
402.00   1.00787076   0.11110042
404.00   0.97906470   0.11276524
406.00   0.95011653   0.11444658
408.00   0.92102628   0.11614453
410.00   0.89179394   0.11785917
412.00   0.86241954   0.11959057
414.00   0.83290308   0.12133882
416.00   0.80324459   0.12310400
418.00   0.77344406   0.12488619
420.00   0.74350152   0.12668547
422.00   0.71341698   0.12850192
424.00   0.68319044   0.13033563
426.00   0.65282194   0.13218666
428.00   0.62231147   0.13405511
430.00   0.59165905   0.13594106
432.00   0.56086469   0.13784458
434.00   0.52992841   0.13976576
436.00   0.49885022   0.14170468
438.00   0.46763014   0.14366141
440.00   0.43626817   0.14563604
442.00   0.40476434   0.14762866
444.00   0.37311865   0.14963933
446.00   0.34133112   0.15166814
448.00   0.30940176   0.15371518
450.00   0.27733060   0.15578052
452.00   0.24511763   0.15786424
454.00   0.21276288   0.15996643
456.00   0.18026635   0.16208716
458.00   0.14762807   0.16422652
460.00   0.11484805   0.16638458
462.00   0.08192630   0.16856143
464.00   0.04886283   0.17075715
466.00   0.01565767   0.17297182
468.00  -0.01768918   0.17520551
470.00  -0.05117770   0.17745832
472.00  -0.08480788   0.17973031
474.00  -0.11857969   0.18202157
476.00  -0.15249313   0.18433219
478.00  -0.18654819   0.18666223
480.00  -0.22074484   0.18901179
482.00  -0.25508307   0.19138094
484.00  -0.28956287   0.19376976
486.00  -0.32418423   0.19617834
488.00  -0.35894712   0.19860675
490.00  -0.39385153   0.20105507
492.00  -0.42889744   0.20352339
494.00  -0.46408485   0.20601179
496.00  -0.49941374   0.20852034
498.00  -0.53488408   0.21104912
500.00  -0.57049587   0.21359822
502.00  -0.60624909   0.21616772
504.00  -0.64214373   0.21875770
506.00  -0.67817976   0.22136823
508.00  -0.71435718   0.22399940
510.00  -0.75067596   0.22665129
512.00  -0.78713609   0.22932397
514.00  -0.82373756   0.23201754
516.00  -0.86048035   0.23473206
518.00  -0.89736444   0.23746762
520.00  -0.93438982   0.24022430
522.00  -0.97155647   0.24300218
524.00  -1.00886438   0.24580134
526.00  -1.04631352   0.24862186
528.00  -1.08390389   0.25146382
530.00  -1.12163546   0.25432730
532.00  -1.15950823   0.25721238
534.00  -1.19752216   0.26011914
536.00  -1.23567726   0.26304766
538.00  -1.27397349   0.26599802
540.00  -1.31241085   0.26897030
542.00  -1.35098931   0.27196459
544.00  -1.38970887   0.27498095
546.00  -1.42856949   0.27801947
548.00  -1.46757118   0.28108023
550.00  -1.50671390   0.28416332
552.00  -1.54599765   0.28726880
554.00  -1.58542240   0.29039676
556.00  -1.62498814   0.29354729
558.00  -1.66469485   0.29672046
560.00  -1.70454251   0.29991634
562.00  -1.74453111   0.30313503
564.00  -1.78466063   0.30637659
566.00  -1.82493105   0.30964112
568.00  -1.86534236   0.31292868
570.00  -1.90589453   0.31623937
572.00  -1.94658755   0.31957325
574.00  -1.98742140   0.32293041
576.00  -2.02839607   0.32631093
578.00  -2.06951153   0.32971490
580.00  -2.11076776   0.33314237
582.00  -2.15216476   0.33659345
584.00  -2.19370250   0.34006820
586.00  -2.23538097   0.34356672
588.00  -2.27720014   0.34708907
590.00  -2.31916000   0.35063533
592.00  -2.36126052   0.35420559
594.00  -2.40350170   0.35779993
596.00  -2.44588351   0.36141843
598.00  -2.48840594   0.36506115
600.00  -2.53106896   0.36872820
602.00  -2.57387256   0.37241964
604.00  -2.61681672   0.37613555
606.00  -2.65990142   0.37987601
608.00  -2.70312664   0.38364111
610.00  -2.74649236   0.38743092
612.00  -2.78999857   0.39124552
614.00  -2.83364524   0.39508500
616.00  -2.87743236   0.39894942
618.00  -2.92135990   0.40283887
620.00  -2.96542785   0.40675344
622.00  -3.00963620   0.41069319
624.00  -3.05398491   0.41465821
626.00  -3.09847397   0.41864858
628.00  -3.14310336   0.42266437
630.00  -3.18787307   0.42670567
632.00  -3.23278307   0.43077256
634.00  -3.27783334   0.43486511
636.00  -3.32302387   0.43898340
638.00  -3.36835462   0.44312752
640.00  -3.41382560   0.44729754
642.00  -3.45943676   0.45149354
644.00  -3.50518811   0.45571560
646.00  -3.55107960   0.45996380
648.00  -3.59711124   0.46423822
650.00  -3.64328299   0.46853894
652.00  -3.68959483   0.47286604
654.00  -3.73604675   0.47721959
656.00  -3.78263872   0.48159967
658.00  -3.82937073   0.48600637
660.00  -3.87624275   0.49043977
662.00  -3.92325477   0.49489993
664.00  -3.97040676   0.49938695
666.00  -4.01769870   0.50390090
668.00  -4.06513058   0.50844186
670.00  -4.11270237   0.51300990
672.00  -4.16041405   0.51760511
674.00  -4.20826560   0.52222757
676.00  -4.25625700   0.52687735
678.00  -4.30438823   0.53155454
680.00  -4.35265928   0.53625921
682.00  -4.40107010   0.54099144
684.00  -4.44962070   0.54575130
686.00  -4.49831104   0.55053889
688.00  -4.54714111   0.55535428
690.00  -4.59611088   0.56019754
692.00  -4.64522033   0.56506875
694.00  -4.69446945   0.56996800
696.00  -4.74385820   0.57489537
698.00  -4.79338658   0.57985092
700.00  -4.84305455   0.58483474
702.00  -4.89286210   0.58984691
704.00  -4.94280920   0.59488751
706.00  -4.99289583   0.59995661
708.00  -5.04312198   0.60505429
710.00  -5.09348761   0.61018064
712.00  -5.14399271   0.61533573
714.00  -5.19463726   0.62051963
716.00  -5.24542123   0.62573244
718.00  -5.29634460   0.63097422
720.00  -5.34740735   0.63624505
722.00  -5.39860946   0.64154502
724.00  -5.44995091   0.64687420
726.00  -5.50143167   0.65223267
728.00  -5.55305172   0.65762051
730.00  -5.60481104   0.66303779
732.00  -5.65670961   0.66848460
734.00  -5.70874740   0.67396101
736.00  -5.76092439   0.67946710
738.00  -5.81324056   0.68500295
740.00  -5.86569589   0.69056864
742.00  -5.91829035   0.69616424
744.00  -5.97102392   0.70178984
746.00  -6.02389658   0.70744550
748.00  -6.07690831   0.71313132
750.00  -6.13005908   0.71884737
752.00  -6.18334887   0.72459372
754.00  -6.23677765   0.73037046
756.00  -6.29034541   0.73617766
758.00  -6.34405212   0.74201540
760.00  -6.39789776   0.74788376
762.00  -6.45188230   0.75378281
764.00  -6.50600572   0.75971264
766.00  -6.56026800   0.76567332
768.00  -6.61466912   0.77166493
770.00  -6.66920904   0.77768755
772.00  -6.72388776   0.78374125
774.00  -6.77870523   0.78982612
776.00  -6.83366145   0.79594223
778.00  -6.88875638   0.80208966
780.00  -6.94399000   0.80826848
782.00  -6.99936230   0.81447878
784.00  -7.05487323   0.82072064
786.00  -7.11052279   0.82699412
788.00  -7.16631095   0.83329931
790.00  -7.22223767   0.83963628
792.00  -7.27830295   0.84600512
794.00  -7.33450675   0.85240590
796.00  -7.39084906   0.85883869
798.00  -7.44732983   0.86530359
800.00  -7.50394906   0.87180065
802.00  -7.56070672   0.87832997
804.00  -7.61760278   0.88489161
806.00  -7.67463722   0.89148566
808.00  -7.73181001   0.89811220
810.00  -7.78912113   0.90477129
812.00  -7.84657056   0.91146302
814.00  -7.90415827   0.91818747
816.00  -7.96188423   0.92494471
818.00  -8.01974842   0.93173482
820.00  -8.07775082   0.93855788
822.00  -8.13589139   0.94541396
824.00  -8.19417013   0.95230315
826.00  -8.25258699   0.95922551
828.00  -8.31114196   0.96618113
830.00  -8.36983500   0.97317008
832.00  -8.42866611   0.98019245
834.00  -8.48763524   0.98724830
836.00  -8.54674237   0.99433771
838.00  -8.60598749   1.00146077
840.00  -8.66537056   1.00861755
842.00  -8.72489155   1.01580812
844.00  -8.78455045   1.02303257
846.00  -8.84434722   1.03029097
848.00  -8.90428185   1.03758339
850.00  -8.96435430   1.04490992
852.00  -9.02456455   1.05227063
854.00  -9.08491257   1.05966560
856.00  -9.14539834   1.06709490
858.00  -9.20602183   1.07455861
860.00  -9.26678301   1.08205681
862.00  -9.32768187   1.08958958
864.00  -9.38871836   1.09715699
866.00  -9.44989248   1.10475912
868.00  -9.51120418   1.11239604
870.00  -9.57265345   1.12006783
872.00  -9.63424026   1.12777458
874.00  -9.69596458   1.13551635
876.00  -9.75782638   1.14329322
878.00  -9.81982564   1.15110527
880.00  -9.88196234   1.15895257
882.00  -9.94423643   1.16683521
884.00 -10.00664791   1.17475326
886.00 -10.06919674   1.18270679
888.00 -10.13188289   1.19069588
890.00 -10.19470634   1.19872061
892.00 -10.25766706   1.20678105
894.00 -10.32076503   1.21487729
896.00 -10.38400021   1.22300939
898.00 -10.44737258   1.23117743
900.00 -10.51088212   1.23938150
902.00 -10.57452879   1.24762166
904.00 -10.63831257   1.25589799
906.00 -10.70223342   1.26421057
908.00 -10.76629134   1.27255948
910.00 -10.83048627   1.28094478
912.00 -10.89481821   1.28936657
914.00 -10.95928712   1.29782491
916.00 -11.02389297   1.30631987
918.00 -11.08863573   1.31485154
920.00 -11.15351538   1.32341999
922.00 -11.21853190   1.33202531
924.00 -11.28368524   1.34066755
926.00 -11.34897539   1.34934680
928.00 -11.41440232   1.35806314
930.00 -11.47996599   1.36681664
932.00 -11.54566638   1.37560738
934.00 -11.61150347   1.38443543
936.00 -11.67747722   1.39330087
938.00 -11.74358760   1.40220377
940.00 -11.80983460   1.41114422
942.00 -11.87621817   1.42012228
944.00 -11.94273829   1.42913803
946.00 -12.00939493   1.43819155
948.00 -12.07618807   1.44728292
950.00 -12.14311768   1.45641220
952.00 -12.21018371   1.46557948
954.00 -12.27738616   1.47478483
956.00 -12.34472499   1.48402832
958.00 -12.41220016   1.49331004
960.00 -12.47981166   1.50263005
962.00 -12.54755945   1.51198844
964.00 -12.61544351   1.52138527
966.00 -12.68346379   1.53082063
968.00 -12.75162029   1.54029459
970.00 -12.81991296   1.54980722
972.00 -12.88834177   1.55935860
974.00 -12.95690671   1.56894881
976.00 -13.02560773   1.57857792
978.00 -13.09444482   1.58824600
980.00 -13.16341793   1.59795313
982.00 -13.23252704   1.60769939
984.00 -13.30177213   1.61748485
986.00 -13.37115315   1.62730959
988.00 -13.44067009   1.63717368
990.00 -13.51032291   1.64707720
992.00 -13.58011158   1.65702021
994.00 -13.65003608   1.66700281
996.00 -13.72009637   1.67702506
998.00 -13.79029242   1.68708703
1000.00 -13.86062420   1.69718881
1002.00 -13.93109169   1.70733046
1004.00 -14.00169485   1.71751206
1006.00 -14.07243365   1.72773370
1008.00 -14.14330806   1.73799543
1010.00 -14.21431806   1.74829734
1012.00 -14.28546361   1.75863950
1014.00 -14.35674468   1.76902199
1016.00 -14.42816124   1.77944488
1018.00 -14.49971327   1.78990824
1020.00 -14.57140072   1.80041215
1022.00 -14.64322357   1.81095669
1024.00 -14.71518180   1.82154193
1026.00 -14.78727536   1.83216794
1028.00 -14.85950423   1.84283480
1030.00 -14.93186838   1.85354259
1032.00 -15.00436777   1.86429137
1034.00 -15.07700238   1.87508122
1036.00 -15.14977218   1.88591222
1038.00 -15.22267712   1.89678445
1040.00 -15.29571719   1.90769796
1042.00 -15.36889236   1.91865285
1044.00 -15.44220258   1.92964918
1046.00 -15.51564783   1.94068703
1048.00 -15.58922808   1.95176648
1050.00 -15.66294330   1.96288759
1052.00 -15.73679345   1.97405044
1054.00 -15.81077851   1.98525511
1056.00 -15.88489843   1.99650167
1058.00 -15.95915320   2.00779019
1060.00 -16.03354278   2.01912075
1062.00 -16.10806714   2.03049342
1064.00 -16.18272624   2.04190828
1066.00 -16.25752006   2.05336540
1068.00 -16.33244856   2.06486485
1070.00 -16.40751171   2.07640671
1072.00 -16.48270948   2.08799105
1074.00 -16.55804184   2.09961795
1076.00 -16.63350875   2.11128748
1078.00 -16.70911018   2.12299971
1080.00 -16.78484611   2.13475472
1082.00 -16.86071649   2.14655259
1084.00 -16.93672130   2.15839337
1086.00 -17.01286051   2.17027716
1088.00 -17.08913407   2.18220402
1090.00 -17.16554197   2.19417402
1092.00 -17.24208416   2.20618725
1094.00 -17.31876062   2.21824376
1096.00 -17.39557131   2.23034365
1098.00 -17.47251620   2.24248697
1100.00 -17.54959525   2.25467381
1102.00 -17.62680844   2.26690424
1104.00 -17.70415573   2.27917833
1106.00 -17.78163709   2.29149615
1108.00 -17.85925249   2.30385778
1110.00 -17.93700189   2.31626329
1112.00 -18.01488526   2.32871276
1114.00 -18.09290256   2.34120625
1116.00 -18.17105377   2.35374384
1118.00 -18.24933885   2.36632561
1120.00 -18.32775777   2.37895163
1122.00 -18.40631049   2.39162197
1124.00 -18.48499699   2.40433670
1126.00 -18.56381722   2.41709590
1128.00 -18.64277115   2.42989963
1130.00 -18.72185876   2.44274799
1132.00 -18.80108000   2.45564102
1134.00 -18.88043485   2.46857882
1136.00 -18.95992327   2.48156145
1138.00 -19.03954522   2.49458898
1140.00 -19.11930068   2.50766149
1142.00 -19.19918961   2.52077905
1144.00 -19.27921197   2.53394174
1146.00 -19.35936774   2.54714962
1148.00 -19.43965687   2.56040277
1150.00 -19.52007934   2.57370127
1152.00 -19.60063510   2.58704517
1154.00 -19.68132413   2.60043457
1156.00 -19.76214640   2.61386952
1158.00 -19.84310186   2.62735011
1160.00 -19.92419048   2.64087640
1162.00 -20.00541224   2.65444847
1164.00 -20.08676709   2.66806639
1166.00 -20.16825500   2.68173023
1168.00 -20.24987593   2.69544007
1170.00 -20.33162986   2.70919598
1172.00 -20.41351674   2.72299802
1174.00 -20.49553655   2.73684628
1176.00 -20.57768924   2.75074082
1178.00 -20.65997479   2.76468172
1180.00 -20.74239315   2.77866905
1182.00 -20.82494430   2.79270288
1184.00 -20.90762820   2.80678328
1186.00 -20.99044481   2.82091033
1188.00 -21.07339410   2.83508409
1190.00 -21.15647604   2.84930465
1192.00 -21.23969058   2.86357207
1194.00 -21.32303770   2.87788642
1196.00 -21.40651735   2.89224778
1198.00 -21.49012951   2.90665621
1200.00 -21.57387414   2.92111180
1202.00 -21.65775120   2.93561460
1204.00 -21.74176066   2.95016470
1206.00 -21.82590248   2.96476217
1208.00 -21.91017663   2.97940707
1210.00 -21.99458307   2.99409949
1212.00 -22.07912176   3.00883948
1214.00 -22.16379268   3.02362713
1216.00 -22.24859578   3.03846250
1218.00 -22.33353103   3.05334566
1220.00 -22.41859839   3.06827670
1222.00 -22.50379783   3.08325567
1224.00 -22.58912931   3.09828265
1226.00 -22.67459279   3.11335771
1228.00 -22.76018825   3.12848093
1230.00 -22.84591564   3.14365237
1232.00 -22.93177492   3.15887211
1234.00 -23.01776607   3.17414022
1236.00 -23.10388904   3.18945676
1238.00 -23.19014380   3.20482182
1240.00 -23.27653032   3.22023546
1242.00 -23.36304855   3.23569775
1244.00 -23.44969846   3.25120876
1246.00 -23.53648002   3.26676857
1248.00 -23.62339318   3.28237725
1250.00 -23.71043791   3.29803486
1252.00 -23.79761418   3.31374148
1254.00 -23.88492195   3.32949718
1256.00 -23.97236117   3.34530203
1258.00 -24.05993182   3.36115610
1260.00 -24.14763386   3.37705947
1262.00 -24.23546725   3.39301220
1264.00 -24.32343195   3.40901436
1266.00 -24.41152793   3.42506602
1268.00 -24.49975515   3.44116727
1270.00 -24.58811357   3.45731816
1272.00 -24.67660315   3.47351876
1274.00 -24.76522387   3.48976915
1276.00 -24.85397568   3.50606941
1278.00 -24.94285854   3.52241959
1280.00 -25.03187242   3.53881977
1282.00 -25.12101728   3.55527002
1284.00 -25.21029308   3.57177041
1286.00 -25.29969978   3.58832102
1288.00 -25.38923736   3.60492190
1290.00 -25.47890576   3.62157314
1292.00 -25.56870496   3.63827480
1294.00 -25.65863491   3.65502695
1296.00 -25.74869558   3.67182967
1298.00 -25.83888692   3.68868301
