wavelength(nm)         real         imag
100.00   3.80929835   0.00086674
102.00   3.80563435   0.00091978
104.00   3.80189783   0.00097495
106.00   3.79808878   0.00103229
108.00   3.79420721   0.00109182
110.00   3.79025311   0.00115360
112.00   3.78622650   0.00121767
114.00   3.78212736   0.00128407
116.00   3.77795571   0.00135284
118.00   3.77371155   0.00142402
120.00   3.76939487   0.00149766
122.00   3.76500569   0.00157379
124.00   3.76054399   0.00165246
126.00   3.75600979   0.00173371
128.00   3.75140308   0.00181757
130.00   3.74672387   0.00190410
132.00   3.74197216   0.00199333
134.00   3.73714795   0.00208531
136.00   3.73225125   0.00218007
138.00   3.72728205   0.00227766
140.00   3.72224035   0.00237812
142.00   3.71712617   0.00248149
144.00   3.71193950   0.00258781
146.00   3.70668034   0.00269712
148.00   3.70134870   0.00280947
150.00   3.69594458   0.00292490
152.00   3.69046798   0.00304345
154.00   3.68491891   0.00316515
156.00   3.67929736   0.00329006
158.00   3.67360334   0.00341821
160.00   3.66783685   0.00354965
162.00   3.66199790   0.00368441
164.00   3.65608648   0.00382254
166.00   3.65010260   0.00396407
168.00   3.64404626   0.00410906
170.00   3.63791747   0.00425754
172.00   3.63171622   0.00440956
174.00   3.62544252   0.00456514
176.00   3.61909638   0.00472435
178.00   3.61267779   0.00488721
180.00   3.60618676   0.00505377
182.00   3.59962328   0.00522408
184.00   3.59298738   0.00539816
186.00   3.58627904   0.00557607
188.00   3.57949826   0.00575785
190.00   3.57264507   0.00594353
192.00   3.56571944   0.00613316
194.00   3.55872140   0.00632678
196.00   3.55165093   0.00652443
198.00   3.54450806   0.00672616
200.00   3.53729276   0.00693199
202.00   3.53000506   0.00714199
204.00   3.52264496   0.00735618
206.00   3.51521245   0.00757461
208.00   3.50770754   0.00779732
210.00   3.50013024   0.00802435
212.00   3.49248054   0.00825574
214.00   3.48475845   0.00849154
216.00   3.47696398   0.00873178
218.00   3.46909713   0.00897652
220.00   3.46115789   0.00922578
222.00   3.45314628   0.00947961
224.00   3.44506230   0.00973805
226.00   3.43690595   0.01000114
228.00   3.42867724   0.01026893
230.00   3.42037616   0.01054145
232.00   3.41200272   0.01081876
234.00   3.40355693   0.01110088
236.00   3.39503879   0.01138786
238.00   3.38644831   0.01167974
240.00   3.37778548   0.01197656
242.00   3.36905031   0.01227837
244.00   3.36024280   0.01258520
246.00   3.35136297   0.01289710
248.00   3.34241080   0.01321411
250.00   3.33338632   0.01353627
252.00   3.32428951   0.01386362
254.00   3.31512039   0.01419620
256.00   3.30587895   0.01453406
258.00   3.29656521   0.01487723
260.00   3.28717916   0.01522575
262.00   3.27772082   0.01557968
264.00   3.26819018   0.01593904
266.00   3.25858725   0.01630389
268.00   3.24891203   0.01667425
270.00   3.23916452   0.01705018
272.00   3.22934474   0.01743172
274.00   3.21945269   0.01781890
276.00   3.20948836   0.01821176
278.00   3.19945177   0.01861036
280.00   3.18934292   0.01901473
282.00   3.17916181   0.01942490
284.00   3.16890845   0.01984093
286.00   3.15858284   0.02026285
288.00   3.14818499   0.02069071
290.00   3.13771490   0.02112455
292.00   3.12717257   0.02156440
294.00   3.11655802   0.02201031
296.00   3.10587124   0.02246232
298.00   3.09511224   0.02292047
300.00   3.08428102   0.02338481
302.00   3.07337760   0.02385536
304.00   3.06240196   0.02433219
306.00   3.05135413   0.02481532
308.00   3.04023410   0.02530480
310.00   3.02904188   0.02580067
312.00   3.01777747   0.02630296
314.00   3.00644088   0.02681173
316.00   2.99503211   0.02732701
318.00   2.98355117   0.02784885
320.00   2.97199807   0.02837728
322.00   2.96037280   0.02891235
324.00   2.94867537   0.02945409
326.00   2.93690580   0.03000256
328.00   2.92506408   0.03055778
330.00   2.91315021   0.03111981
332.00   2.90116421   0.03168868
334.00   2.88910608   0.03226443
336.00   2.87697583   0.03284711
338.00   2.86477345   0.03343675
340.00   2.85249896   0.03403340
342.00   2.84015236   0.03463710
344.00   2.82773366   0.03524788
346.00   2.81524285   0.03586580
348.00   2.80267996   0.03649089
350.00   2.79004497   0.03712320
352.00   2.77733790   0.03776275
354.00   2.76455876   0.03840961
356.00   2.75170755   0.03906380
358.00   2.73878427   0.03972536
360.00   2.72578893   0.04039435
362.00   2.71272153   0.04107079
364.00   2.69958209   0.04175474
366.00   2.68637061   0.04244623
368.00   2.67308708   0.04314530
370.00   2.65973153   0.04385200
372.00   2.64630395   0.04456636
374.00   2.63280435   0.04528842
376.00   2.61923274   0.04601824
378.00   2.60558912   0.04675584
380.00   2.59187350   0.04750128
382.00   2.57808589   0.04825458
384.00   2.56422628   0.04901580
386.00   2.55029469   0.04978496
388.00   2.53629112   0.05056213
390.00   2.52221558   0.05134732
392.00   2.50806808   0.05214060
394.00   2.49384862   0.05294199
396.00   2.47955720   0.05375153
398.00   2.46519384   0.05456928
400.00   2.45075853   0.05539527
402.00   2.43625130   0.05622954
404.00   2.42167213   0.05707213
406.00   2.40702104   0.05792308
408.00   2.39229804   0.05878244
410.00   2.37750313   0.05965024
412.00   2.36263632   0.06052653
414.00   2.34769761   0.06141134
416.00   2.33268701   0.06230473
418.00   2.31760453   0.06320672
420.00   2.30245018   0.06411736
422.00   2.28722395   0.06503669
424.00   2.27192586   0.06596476
426.00   2.25655592   0.06690159
428.00   2.24111413   0.06784724
430.00   2.22560049   0.06880175
432.00   2.21001502   0.06976515
434.00   2.19435772   0.07073749
436.00   2.17862859   0.07171880
438.00   2.16282766   0.07270913
440.00   2.14695491   0.07370852
442.00   2.13101036   0.07471701
444.00   2.11499402   0.07573464
446.00   2.09890588   0.07676146
448.00   2.08274597   0.07779749
450.00   2.06651429   0.07884279
452.00   2.05021084   0.07989739
454.00   2.03383562   0.08096134
456.00   2.01738866   0.08203467
458.00   2.00086995   0.08311743
460.00   1.98427951   0.08420966
462.00   1.96761733   0.08531140
464.00   1.95088343   0.08642268
466.00   1.93407781   0.08754355
468.00   1.91720049   0.08867406
470.00   1.90025146   0.08981424
472.00   1.88323074   0.09096412
474.00   1.86613833   0.09212377
476.00   1.84897424   0.09329320
478.00   1.83173848   0.09447247
480.00   1.81443106   0.09566162
482.00   1.79705198   0.09686068
484.00   1.77960125   0.09806970
486.00   1.76207888   0.09928871
488.00   1.74448488   0.10051777
490.00   1.72681925   0.10175690
492.00   1.70908200   0.10300615
494.00   1.69127314   0.10426556
496.00   1.67339268   0.10553518
498.00   1.65544062   0.10681503
500.00   1.63741697   0.10810517
502.00   1.61932175   0.10940563
504.00   1.60115495   0.11071645
506.00   1.58291659   0.11203768
508.00   1.56460667   0.11336936
510.00   1.54622521   0.11471152
512.00   1.52777220   0.11606420
514.00   1.50924767   0.11742745
516.00   1.49065161   0.11880131
518.00   1.47198403   0.12018582
520.00   1.45324495   0.12158102
522.00   1.43443437   0.12298694
524.00   1.41555229   0.12440364
526.00   1.39659873   0.12583114
528.00   1.37757370   0.12726950
530.00   1.35847720   0.12871875
532.00   1.33930925   0.13017893
534.00   1.32006984   0.13165008
536.00   1.30075899   0.13313225
538.00   1.28137671   0.13462547
540.00   1.26192300   0.13612979
542.00   1.24239788   0.13764523
544.00   1.22280135   0.13917186
546.00   1.20313342   0.14070970
548.00   1.18339410   0.14225880
550.00   1.16358340   0.14381919
552.00   1.14370133   0.14539092
554.00   1.12374789   0.14697403
556.00   1.10372309   0.14856856
558.00   1.08362695   0.15017454
560.00   1.06345946   0.15179203
562.00   1.04322065   0.15342105
564.00   1.02291052   0.15506165
566.00   1.00252907   0.15671388
568.00   0.98207632   0.15837776
570.00   0.96155228   0.16005335
572.00   0.94095695   0.16174067
574.00   0.92029034   0.16343978
576.00   0.89955247   0.16515071
578.00   0.87874333   0.16687351
580.00   0.85786295   0.16860820
582.00   0.83691133   0.17035484
584.00   0.81588847   0.17211347
586.00   0.79479439   0.17388412
588.00   0.77362910   0.17566683
590.00   0.75239261   0.17746164
592.00   0.73108492   0.17926861
594.00   0.70970604   0.18108775
596.00   0.68825599   0.18291913
598.00   0.66673477   0.18476276
600.00   0.64514240   0.18661871
602.00   0.62347887   0.18848700
604.00   0.60174421   0.19036768
606.00   0.57993842   0.19226078
608.00   0.55806150   0.19416635
610.00   0.53611348   0.19608443
612.00   0.51409435   0.19801505
614.00   0.49200414   0.19995827
616.00   0.46984284   0.20191411
618.00   0.44761047   0.20388262
620.00   0.42530704   0.20586383
622.00   0.40293255   0.20785780
624.00   0.38048702   0.20986455
626.00   0.35797046   0.21188414
628.00   0.33538288   0.21391659
630.00   0.31272428   0.21596195
632.00   0.28999467   0.21802026
634.00   0.26719408   0.22009156
636.00   0.24432249   0.22217589
638.00   0.22137994   0.22427329
640.00   0.19836641   0.22638379
642.00   0.17528194   0.22850745
644.00   0.15212652   0.23064430
646.00   0.12890016   0.23279437
648.00   0.10560288   0.23495772
650.00   0.08223469   0.23713438
652.00   0.05879559   0.23932438
654.00   0.03528560   0.24152778
656.00   0.01170473   0.24374460
658.00  -0.01194702   0.24597490
660.00  -0.03566964   0.24821871
662.00  -0.05946310   0.25047606
664.00  -0.08332741   0.25274701
666.00  -0.10726255   0.25503158
668.00  -0.13126852   0.25732982
670.00  -0.15534529   0.25964178
672.00  -0.17949287   0.26196748
674.00  -0.20371123   0.26430697
676.00  -0.22800038   0.26666030
678.00  -0.25236030   0.26902749
680.00  -0.27679097   0.27140859
682.00  -0.30129240   0.27380364
684.00  -0.32586456   0.27621268
686.00  -0.35050745   0.27863575
688.00  -0.37522106   0.28107288
690.00  -0.40000538   0.28352413
692.00  -0.42486038   0.28598952
694.00  -0.44978608   0.28846910
696.00  -0.47478245   0.29096291
698.00  -0.49984948   0.29347099
700.00  -0.52498716   0.29599337
702.00  -0.55019548   0.29853011
704.00  -0.57547444   0.30108122
706.00  -0.60082401   0.30364677
708.00  -0.62624420   0.30622678
710.00  -0.65173498   0.30882130
712.00  -0.67729634   0.31143037
714.00  -0.70292829   0.31405402
716.00  -0.72863079   0.31669229
718.00  -0.75440385   0.31934524
720.00  -0.78024746   0.32201288
722.00  -0.80616159   0.32469527
724.00  -0.83214624   0.32739245
726.00  -0.85820140   0.33010445
728.00  -0.88432706   0.33283131
730.00  -0.91052321   0.33557308
732.00  -0.93678983   0.33832978
734.00  -0.96312691   0.34110147
736.00  -0.98953444   0.34388819
738.00  -1.01601242   0.34668996
740.00  -1.04256083   0.34950684
742.00  -1.06917965   0.35233885
744.00  -1.09586888   0.35518605
746.00  -1.12262850   0.35804847
748.00  -1.14945851   0.36092614
750.00  -1.17635888   0.36381912
752.00  -1.20332962   0.36672743
754.00  -1.23037071   0.36965112
756.00  -1.25748213   0.37259023
758.00  -1.28466388   0.37554479
760.00  -1.31191594   0.37851486
762.00  -1.33923830   0.38150045
764.00  -1.36663095   0.38450163
766.00  -1.39409388   0.38751841
768.00  -1.42162708   0.39055085
770.00  -1.44923053   0.39359899
772.00  -1.47690422   0.39666286
774.00  -1.50464814   0.39974250
776.00  -1.53246228   0.40283795
778.00  -1.56034663   0.40594925
780.00  -1.58830117   0.40907644
782.00  -1.61632589   0.41221957
784.00  -1.64442079   0.41537866
786.00  -1.67258584   0.41855376
788.00  -1.70082104   0.42174491
790.00  -1.72912637   0.42495214
792.00  -1.75750182   0.42817550
794.00  -1.78594738   0.43141503
796.00  -1.81446304   0.43467076
798.00  -1.84304879   0.43794274
800.00  -1.87170460   0.44123100
802.00  -1.90043048   0.44453558
804.00  -1.92922640   0.44785652
806.00  -1.95809236   0.45119387
808.00  -1.98702834   0.45454765
810.00  -2.01603434   0.45791792
812.00  -2.04511033   0.46130470
814.00  -2.07425630   0.46470804
816.00  -2.10347225   0.46812798
818.00  -2.13275816   0.47156455
820.00  -2.16211402   0.47501780
822.00  -2.19153981   0.47848777
824.00  -2.22103553   0.48197448
826.00  -2.25060115   0.48547799
828.00  -2.28023667   0.48899833
830.00  -2.30994208   0.49253554
832.00  -2.33971736   0.49608966
834.00  -2.36956249   0.49966073
836.00  -2.39947747   0.50324879
838.00  -2.42946229   0.50685387
840.00  -2.45951692   0.51047602
842.00  -2.48964137   0.51411528
844.00  -2.51983560   0.51777167
846.00  -2.55009962   0.52144525
848.00  -2.58043341   0.52513606
850.00  -2.61083695   0.52884412
852.00  -2.64131023   0.53256948
854.00  -2.67185324   0.53631218
856.00  -2.70246597   0.54007226
858.00  -2.73314840   0.54384975
860.00  -2.76390052   0.54764470
862.00  -2.79472232   0.55145714
864.00  -2.82561378   0.55528712
866.00  -2.85657489   0.55913467
868.00  -2.88760563   0.56299983
870.00  -2.91870600   0.56688263
872.00  -2.94987598   0.57078313
874.00  -2.98111556   0.57470135
876.00  -3.01242472   0.57863734
878.00  -3.04380345   0.58259113
880.00  -3.07525173   0.58656277
882.00  -3.10676956   0.59055228
884.00  -3.13835692   0.59455972
886.00  -3.17001379   0.59858512
888.00  -3.20174016   0.60262852
890.00  -3.23353602   0.60668995
892.00  -3.26540136   0.61076946
894.00  -3.29733616   0.61486708
896.00  -3.32934041   0.61898285
898.00  -3.36141409   0.62311682
900.00  -3.39355719   0.62726902
902.00  -3.42576969   0.63143948
904.00  -3.45805159   0.63562825
906.00  -3.49040287   0.63983537
908.00  -3.52282351   0.64406087
910.00  -3.55531350   0.64830480
912.00  -3.58787283   0.65256719
914.00  -3.62050148   0.65684807
916.00  -3.65319944   0.66114750
918.00  -3.68596670   0.66546550
920.00  -3.71880324   0.66980212
922.00  -3.75170904   0.67415739
924.00  -3.78468410   0.67853136
926.00  -3.81772839   0.68292406
928.00  -3.85084191   0.68733552
930.00  -3.88402464   0.69176580
932.00  -3.91727656   0.69621492
934.00  -3.95059767   0.70068292
936.00  -3.98398795   0.70516985
938.00  -4.01744737   0.70967574
940.00  -4.05097594   0.71420063
942.00  -4.08457363   0.71874455
944.00  -4.11824044   0.72330756
946.00  -4.15197633   0.72788968
948.00  -4.18578131   0.73249095
950.00  -4.21965536   0.73711141
952.00  -4.25359846   0.74175111
954.00  -4.28761059   0.74641007
956.00  -4.32169175   0.75108833
958.00  -4.35584192   0.75578595
960.00  -4.39006109   0.76050294
962.00  -4.42434923   0.76523936
964.00  -4.45870634   0.76999523
966.00  -4.49313239   0.77477060
968.00  -4.52762739   0.77956551
970.00  -4.56219130   0.78437999
972.00  -4.59682412   0.78921409
974.00  -4.63152583   0.79406783
976.00  -4.66629642   0.79894126
978.00  -4.70113587   0.80383442
980.00  -4.73604417   0.80874734
982.00  -4.77102130   0.81368006
984.00  -4.80606724   0.81863263
986.00  -4.84118199   0.82360507
988.00  -4.87636552   0.82859743
990.00  -4.91161783   0.83360974
992.00  -4.94693889   0.83864205
994.00  -4.98232869   0.84369438
996.00  -5.01778723   0.84876679
998.00  -5.05331447   0.85385930
1000.00  -5.08891041   0.85897196
1002.00  -5.12457503   0.86410480
1004.00  -5.16030832   0.86925785
1006.00  -5.19611025   0.87443117
1008.00  -5.23198083   0.87962478
1010.00  -5.26792002   0.88483873
1012.00  -5.30392782   0.89007305
1014.00  -5.34000420   0.89532778
1016.00  -5.37614917   0.90060295
1018.00  -5.41236269   0.90589861
1020.00  -5.44864475   0.91121479
1022.00  -5.48499534   0.91655154
1024.00  -5.52141445   0.92190888
1026.00  -5.55790205   0.92728686
1028.00  -5.59445813   0.93268552
1030.00  -5.63108268   0.93810488
1032.00  -5.66777568   0.94354500
1034.00  -5.70453711   0.94900590
1036.00  -5.74136696   0.95448763
1038.00  -5.77826522   0.95999022
1040.00  -5.81523186   0.96551371
1042.00  -5.85226687   0.97105813
1044.00  -5.88937025   0.97662354
1046.00  -5.92654196   0.98220995
1048.00  -5.96378199   0.98781742
1050.00  -6.00109034   0.99344598
1052.00  -6.03846697   0.99909566
1054.00  -6.07591189   1.00476651
1056.00  -6.11342506   1.01045855
1058.00  -6.15100648   1.01617184
1060.00  -6.18865613   1.02190640
1062.00  -6.22637399   1.02766227
1064.00  -6.26416005   1.03343950
1066.00  -6.30201429   1.03923811
1068.00  -6.33993669   1.04505815
1070.00  -6.37792725   1.05089966
1072.00  -6.41598593   1.05676266
1074.00  -6.45411273   1.06264721
1076.00  -6.49230764   1.06855332
1078.00  -6.53057062   1.07448106
1080.00  -6.56890168   1.08043044
1082.00  -6.60730078   1.08640151
1084.00  -6.64576792   1.09239430
1086.00  -6.68430308   1.09840886
1088.00  -6.72290624   1.10444521
1090.00  -6.76157739   1.11050341
1092.00  -6.80031651   1.11658348
1094.00  -6.83912358   1.12268545
1096.00  -6.87799859   1.12880938
1098.00  -6.91694152   1.13495530
1100.00  -6.95595235   1.14112323
1102.00  -6.99503107   1.14731323
1104.00  -7.03417766   1.15352532
1106.00  -7.07339210   1.15975955
1108.00  -7.11267438   1.16601595
1110.00  -7.15202449   1.17229456
1112.00  -7.19144239   1.17859542
1114.00  -7.23092809   1.18491856
1116.00  -7.27048155   1.19126402
1118.00  -7.31010277   1.19763183
1120.00  -7.34979173   1.20402204
1122.00  -7.38954840   1.21043469
1124.00  -7.42937278   1.21686980
1126.00  -7.46926485   1.22332741
1128.00  -7.50922458   1.22980757
1130.00  -7.54925197   1.23631031
1132.00  -7.58934700   1.24283566
1134.00  -7.62950964   1.24938367
1136.00  -7.66973989   1.25595437
1138.00  -7.71003772   1.26254779
1140.00  -7.75040311   1.26916398
1142.00  -7.79083606   1.27580297
1144.00  -7.83133655   1.28246480
1146.00  -7.87190454   1.28914950
1148.00  -7.91254004   1.29585711
1150.00  -7.95324302   1.30258767
1152.00  -7.99401347   1.30934122
1154.00  -8.03485136   1.31611778
1156.00  -8.07575669   1.32291741
1158.00  -8.11672943   1.32974013
1160.00  -8.15776956   1.33658598
1162.00  -8.19887707   1.34345501
1164.00  -8.24005194   1.35034723
1166.00  -8.28129416   1.35726270
1168.00  -8.32260370   1.36420145
1170.00  -8.36398055   1.37116352
1172.00  -8.40542470   1.37814893
1174.00  -8.44693612   1.38515774
1176.00  -8.48851479   1.39218997
1178.00  -8.53016070   1.39924566
1180.00  -8.57187384   1.40632485
1182.00  -8.61365418   1.41342757
1184.00  -8.65550170   1.42055387
1186.00  -8.69741639   1.42770377
1188.00  -8.73939823   1.43487732
1190.00  -8.78144721   1.44207455
1192.00  -8.82356330   1.44929550
1194.00  -8.86574649   1.45654020
1196.00  -8.90799676   1.46380870
1198.00  -8.95031409   1.47110101
1200.00  -8.99269847   1.47841720
1202.00  -9.03514987   1.48575728
1204.00  -9.07766828   1.49312130
1206.00  -9.12025368   1.50050929
1208.00  -9.16290605   1.50792128
1210.00  -9.20562538   1.51535733
1212.00  -9.24841164   1.52281745
1214.00  -9.29126482   1.53030170
1216.00  -9.33418491   1.53781009
1218.00  -9.37717187   1.54534268
1220.00  -9.42022570   1.55289949
1222.00  -9.46334638   1.56048057
1224.00  -9.50653388   1.56808594
1226.00  -9.54978820   1.57571565
1228.00  -9.59310930   1.58336973
1230.00  -9.63649718   1.59104822
1232.00  -9.67995182   1.59875115
1234.00  -9.72347319   1.60647856
1236.00  -9.76706128   1.61423049
1238.00  -9.81071607   1.62200697
1240.00  -9.85443754   1.62980803
1242.00  -9.89822568   1.63763372
1244.00  -9.94208046   1.64548407
1246.00  -9.98600187   1.65335912
1248.00 -10.02998988   1.66125890
1250.00 -10.07404449   1.66918344
1252.00 -10.11816567   1.67713279
1254.00 -10.16235340   1.68510698
1256.00 -10.20660766   1.69310605
1258.00 -10.25092844   1.70113002
1260.00 -10.29531572   1.70917895
1262.00 -10.33976948   1.71725286
1264.00 -10.38428969   1.72535178
1266.00 -10.42887635   1.73347577
1268.00 -10.47352943   1.74162484
1270.00 -10.51824891   1.74979904
1272.00 -10.56303478   1.75799840
1274.00 -10.60788701   1.76622296
1276.00 -10.65280560   1.77447276
1278.00 -10.69779051   1.78274782
1280.00 -10.74284173   1.79104819
1282.00 -10.78795924   1.79937390
1284.00 -10.83314302   1.80772499
1286.00 -10.87839305   1.81610149
1288.00 -10.92370932   1.82450344
1290.00 -10.96909181   1.83293088
1292.00 -11.01454049   1.84138383
1294.00 -11.06005534   1.84986234
1296.00 -11.10563636   1.85836644
1298.00 -11.15128351   1.86689616
