wavelength(nm)         real         imag
100.00   3.73494991   0.00157720
102.00   3.72828252   0.00167373
104.00   3.72148316   0.00177413
106.00   3.71455181   0.00187845
108.00   3.70748850   0.00198679
110.00   3.70029322   0.00209922
112.00   3.69296598   0.00221581
114.00   3.68550677   0.00233663
116.00   3.67791561   0.00246177
118.00   3.67019249   0.00259130
120.00   3.66233742   0.00272530
122.00   3.65435040   0.00286383
124.00   3.64623144   0.00300699
126.00   3.63798054   0.00315483
128.00   3.62959770   0.00330744
130.00   3.62108292   0.00346490
132.00   3.61243622   0.00362727
134.00   3.60365759   0.00379464
136.00   3.59474704   0.00396708
138.00   3.58570457   0.00414466
140.00   3.57653018   0.00432747
142.00   3.56722389   0.00451557
144.00   3.55778568   0.00470904
146.00   3.54821558   0.00490796
148.00   3.53851358   0.00511241
150.00   3.52867968   0.00532245
152.00   3.51871390   0.00553817
154.00   3.50861623   0.00575964
156.00   3.49838668   0.00598694
158.00   3.48802525   0.00622013
160.00   3.47753195   0.00645930
162.00   3.46690679   0.00670453
164.00   3.45614976   0.00695588
166.00   3.44526087   0.00721344
168.00   3.43424013   0.00747727
170.00   3.42308755   0.00774746
172.00   3.41180312   0.00802408
174.00   3.40038685   0.00830721
176.00   3.38883875   0.00859691
178.00   3.37715882   0.00889328
180.00   3.36534707   0.00919637
182.00   3.35340350   0.00950627
184.00   3.34132811   0.00982305
186.00   3.32912092   0.01014680
188.00   3.31678193   0.01047757
190.00   3.30431114   0.01081546
192.00   3.29170856   0.01116053
194.00   3.27897420   0.01151286
196.00   3.26610805   0.01187253
198.00   3.25311013   0.01223961
200.00   3.23998044   0.01261417
202.00   3.22671899   0.01299630
204.00   3.21332578   0.01338606
206.00   3.19980082   0.01378354
208.00   3.18614412   0.01418880
210.00   3.17235567   0.01460193
212.00   3.15843549   0.01502300
214.00   3.14438359   0.01545209
216.00   3.13019996   0.01588926
218.00   3.11588462   0.01633460
220.00   3.10143757   0.01678818
222.00   3.08685881   0.01725007
224.00   3.07214837   0.01772036
226.00   3.05730623   0.01819911
228.00   3.04233241   0.01868641
230.00   3.02722691   0.01918232
232.00   3.01198974   0.01968693
234.00   2.99662091   0.02020030
236.00   2.98112042   0.02072252
238.00   2.96548829   0.02125366
240.00   2.94972451   0.02179379
242.00   2.93382909   0.02234299
244.00   2.91780205   0.02290133
246.00   2.90164338   0.02346890
248.00   2.88535310   0.02404576
250.00   2.86893121   0.02463199
252.00   2.85237772   0.02522767
254.00   2.83569264   0.02583287
256.00   2.81887597   0.02644767
258.00   2.80192772   0.02707214
260.00   2.78484790   0.02770635
262.00   2.76763652   0.02835039
264.00   2.75029358   0.02900433
266.00   2.73281909   0.02966824
268.00   2.71521306   0.03034219
270.00   2.69747550   0.03102627
272.00   2.67960641   0.03172055
274.00   2.66160580   0.03242511
276.00   2.64347369   0.03314001
278.00   2.62521007   0.03386533
280.00   2.60681496   0.03460116
282.00   2.58828836   0.03534756
284.00   2.56963029   0.03610461
286.00   2.55084074   0.03687238
288.00   2.53191974   0.03765096
290.00   2.51286728   0.03844040
292.00   2.49368337   0.03924080
294.00   2.47436803   0.04005223
296.00   2.45492126   0.04087475
298.00   2.43534308   0.04170846
300.00   2.41563348   0.04255341
302.00   2.39579248   0.04340968
304.00   2.37582008   0.04427736
306.00   2.35571630   0.04515652
308.00   2.33548115   0.04604722
310.00   2.31511462   0.04694956
312.00   2.29461674   0.04786359
314.00   2.27398751   0.04878940
316.00   2.25322694   0.04972706
318.00   2.23233504   0.05067665
320.00   2.21131181   0.05163823
322.00   2.19015727   0.05261190
324.00   2.16887143   0.05359771
326.00   2.14745430   0.05459576
328.00   2.12590588   0.05560610
330.00   2.10422618   0.05662882
332.00   2.08241522   0.05766399
334.00   2.06047300   0.05871169
336.00   2.03839953   0.05977199
338.00   2.01619483   0.06084496
340.00   1.99385889   0.06193069
342.00   1.97139174   0.06302924
344.00   1.94879339   0.06414069
346.00   1.92606383   0.06526512
348.00   1.90320309   0.06640260
350.00   1.88021116   0.06755320
352.00   1.85708807   0.06871701
354.00   1.83383382   0.06989409
356.00   1.81044843   0.07108452
358.00   1.78693189   0.07228837
360.00   1.76328423   0.07350573
362.00   1.73950545   0.07473666
364.00   1.71559556   0.07598124
366.00   1.69155458   0.07723954
368.00   1.66738251   0.07851164
370.00   1.64307937   0.07979762
372.00   1.61864516   0.08109755
374.00   1.59407989   0.08241149
376.00   1.56938359   0.08373954
378.00   1.54455625   0.08508176
380.00   1.51959789   0.08643823
382.00   1.49450851   0.08780902
384.00   1.46928814   0.08919420
386.00   1.44393678   0.09059386
388.00   1.41845444   0.09200807
390.00   1.39284114   0.09343689
392.00   1.36709688   0.09488042
394.00   1.34122168   0.09633871
396.00   1.31521554   0.09781185
398.00   1.28907848   0.09929990
400.00   1.26281051   0.10080295
402.00   1.23641164   0.10232108
404.00   1.20988189   0.10385434
406.00   1.18322126   0.10540282
408.00   1.15642976   0.10696660
410.00   1.12950741   0.10854574
412.00   1.10245423   0.11014032
414.00   1.07527021   0.11175043
416.00   1.04795538   0.11337612
418.00   1.02050974   0.11501748
420.00   0.99293331   0.11667457
422.00   0.96522609   0.11834749
424.00   0.93738811   0.12003629
426.00   0.90941937   0.12174105
428.00   0.88131989   0.12346185
430.00   0.85308968   0.12519877
432.00   0.82472874   0.12695187
434.00   0.79623710   0.12872124
436.00   0.76761476   0.13050694
438.00   0.73886174   0.13230905
440.00   0.70997805   0.13412764
442.00   0.68096370   0.13596279
444.00   0.65181871   0.13781458
446.00   0.62254308   0.13968307
448.00   0.59313684   0.14156835
450.00   0.56359999   0.14347048
452.00   0.53393254   0.14538955
454.00   0.50413452   0.14732562
456.00   0.47420592   0.14927876
458.00   0.44414677   0.15124907
460.00   0.41395708   0.15323660
462.00   0.38363686   0.15524143
464.00   0.35318613   0.15726364
466.00   0.32260489   0.15930330
468.00   0.29189317   0.16136048
470.00   0.26105097   0.16343526
472.00   0.23007830   0.16552772
474.00   0.19897519   0.16763792
476.00   0.16774165   0.16976595
478.00   0.13637768   0.17191187
480.00   0.10488330   0.17407576
482.00   0.07325854   0.17625770
484.00   0.04150339   0.17845775
486.00   0.00961787   0.18067600
488.00  -0.02239800   0.18291251
490.00  -0.05454420   0.18516737
492.00  -0.08682073   0.18744063
494.00  -0.11922757   0.18973239
496.00  -0.15176471   0.19204271
498.00  -0.18443213   0.19437167
500.00  -0.21722982   0.19671933
502.00  -0.25015776   0.19908579
504.00  -0.28321594   0.20147110
506.00  -0.31640434   0.20387534
508.00  -0.34972296   0.20629859
510.00  -0.38317177   0.20874092
512.00  -0.41675077   0.21120241
514.00  -0.45045993   0.21368312
516.00  -0.48429924   0.21618314
518.00  -0.51826869   0.21870253
520.00  -0.55236826   0.22124138
522.00  -0.58659794   0.22379975
524.00  -0.62095771   0.22637771
526.00  -0.65544756   0.22897535
528.00  -0.69006748   0.23159273
530.00  -0.72481744   0.23422993
532.00  -0.75969743   0.23688703
534.00  -0.79470744   0.23956409
536.00  -0.82984746   0.24226120
538.00  -0.86511746   0.24497841
540.00  -0.90051743   0.24771582
542.00  -0.93604736   0.25047349
544.00  -0.97170723   0.25325149
546.00  -1.00749703   0.25604991
548.00  -1.04341673   0.25886880
550.00  -1.07946633   0.26170826
552.00  -1.11564581   0.26456834
554.00  -1.15195515   0.26744913
556.00  -1.18839434   0.27035069
558.00  -1.22496336   0.27327311
560.00  -1.26166220   0.27621645
562.00  -1.29849083   0.27918079
564.00  -1.33544925   0.28216620
566.00  -1.37253743   0.28517276
568.00  -1.40975537   0.28820053
570.00  -1.44710304   0.29124960
572.00  -1.48458043   0.29432004
574.00  -1.52218752   0.29741191
576.00  -1.55992430   0.30052530
578.00  -1.59779075   0.30366027
580.00  -1.63578685   0.30681691
582.00  -1.67391259   0.30999527
584.00  -1.71216795   0.31319545
586.00  -1.75055291   0.31641750
588.00  -1.78906746   0.31966151
590.00  -1.82771158   0.32292754
592.00  -1.86648525   0.32621568
594.00  -1.90538846   0.32952598
596.00  -1.94442119   0.33285854
598.00  -1.98358343   0.33621341
600.00  -2.02287514   0.33959068
602.00  -2.06229633   0.34299041
604.00  -2.10184697   0.34641269
606.00  -2.14152704   0.34985758
608.00  -2.18133653   0.35332515
610.00  -2.22127543   0.35681548
612.00  -2.26134370   0.36032865
614.00  -2.30154134   0.36386472
616.00  -2.34186832   0.36742377
618.00  -2.38232464   0.37100587
620.00  -2.42291027   0.37461110
622.00  -2.46362520   0.37823953
624.00  -2.50446940   0.38189122
626.00  -2.54544286   0.38556627
628.00  -2.58654557   0.38926473
630.00  -2.62777749   0.39298668
632.00  -2.66913863   0.39673219
634.00  -2.71062895   0.40050134
636.00  -2.75224845   0.40429420
638.00  -2.79399709   0.40811084
640.00  -2.83587488   0.41195134
642.00  -2.87788177   0.41581577
644.00  -2.92001777   0.41970419
646.00  -2.96228284   0.42361669
648.00  -3.00467698   0.42755334
650.00  -3.04720016   0.43151421
652.00  -3.08985236   0.43549937
654.00  -3.13263357   0.43950890
656.00  -3.17554377   0.44354286
658.00  -3.21858293   0.44760134
660.00  -3.26175105   0.45168440
662.00  -3.30504810   0.45579211
664.00  -3.34847406   0.45992456
666.00  -3.39202892   0.46408181
668.00  -3.43571265   0.46826393
670.00  -3.47952523   0.47247100
672.00  -3.52346666   0.47670309
674.00  -3.56753690   0.48096028
676.00  -3.61173594   0.48524262
678.00  -3.65606376   0.48955021
680.00  -3.70052035   0.49388311
682.00  -3.74510567   0.49824139
684.00  -3.78981972   0.50262512
686.00  -3.83466247   0.50703439
688.00  -3.87963390   0.51146925
690.00  -3.92473400   0.51592979
692.00  -3.96996274   0.52041608
694.00  -4.01532011   0.52492818
696.00  -4.06080608   0.52946617
698.00  -4.10642064   0.53403013
700.00  -4.15216377   0.53862012
702.00  -4.19803544   0.54323622
704.00  -4.24403564   0.54787850
706.00  -4.29016434   0.55254703
708.00  -4.33642153   0.55724189
710.00  -4.38280719   0.56196314
712.00  -4.42932129   0.56671087
714.00  -4.47596382   0.57148514
716.00  -4.52273476   0.57628602
718.00  -4.56963408   0.58111358
720.00  -4.61666177   0.58596791
722.00  -4.66381780   0.59084906
724.00  -4.71110216   0.59575712
726.00  -4.75851483   0.60069215
728.00  -4.80605578   0.60565423
730.00  -4.85372499   0.61064343
732.00  -4.90152244   0.61565983
734.00  -4.94944812   0.62070348
736.00  -4.99750200   0.62577447
738.00  -5.04568406   0.63087287
740.00  -5.09399428   0.63599875
742.00  -5.14243264   0.64115218
744.00  -5.19099911   0.64633323
746.00  -5.23969369   0.65154198
748.00  -5.28851634   0.65677849
750.00  -5.33746705   0.66204285
752.00  -5.38654579   0.66733512
754.00  -5.43575254   0.67265537
756.00  -5.48508729   0.67800367
758.00  -5.53455000   0.68338010
760.00  -5.58414067   0.68878473
762.00  -5.63385926   0.69421764
764.00  -5.68370576   0.69967888
766.00  -5.73368014   0.70516854
768.00  -5.78378239   0.71068668
770.00  -5.83401248   0.71623338
772.00  -5.88437039   0.72180871
774.00  -5.93485610   0.72741274
776.00  -5.98546958   0.73304555
778.00  -6.03621082   0.73870719
780.00  -6.08707979   0.74439776
782.00  -6.13807647   0.75011731
784.00  -6.18920084   0.75586592
786.00  -6.24045288   0.76164366
788.00  -6.29183256   0.76745060
790.00  -6.34333987   0.77328682
792.00  -6.39497477   0.77915238
794.00  -6.44673725   0.78504736
796.00  -6.49862729   0.79097183
798.00  -6.55064487   0.79692585
800.00  -6.60278995   0.80290951
802.00  -6.65506252   0.80892287
804.00  -6.70746256   0.81496600
806.00  -6.75999004   0.82103898
808.00  -6.81264495   0.82714187
810.00  -6.86542725   0.83327475
812.00  -6.91833692   0.83943769
814.00  -6.97137395   0.84563076
816.00  -7.02453831   0.85185403
818.00  -7.07782998   0.85810758
820.00  -7.13124893   0.86439147
822.00  -7.18479514   0.87070577
824.00  -7.23846859   0.87705056
826.00  -7.29226925   0.88342591
828.00  -7.34619711   0.88983188
830.00  -7.40025214   0.89626856
832.00  -7.45443431   0.90273600
834.00  -7.50874360   0.90923429
836.00  -7.56317999   0.91576349
838.00  -7.61774346   0.92232367
840.00  -7.67243398   0.92891491
842.00  -7.72725152   0.93553727
844.00  -7.78219607   0.94219083
846.00  -7.83726761   0.94887565
848.00  -7.89246610   0.95559182
850.00  -7.94779152   0.96233939
852.00  -8.00324386   0.96911844
854.00  -8.05882308   0.97592905
856.00  -8.11452916   0.98277128
858.00  -8.17036208   0.98964519
860.00  -8.22632181   0.99655087
862.00  -8.28240834   1.00348839
864.00  -8.33862163   1.01045781
866.00  -8.39496166   1.01745920
868.00  -8.45142842   1.02449264
870.00  -8.50802186   1.03155820
872.00  -8.56474198   1.03865595
874.00  -8.62158874   1.04578595
876.00  -8.67856212   1.05294828
878.00  -8.73566209   1.06014301
880.00  -8.79288864   1.06737021
882.00  -8.85024173   1.07462994
884.00  -8.90772135   1.08192229
886.00  -8.96532747   1.08924732
888.00  -9.02306006   1.09660510
890.00  -9.08091909   1.10399570
892.00  -9.13890455   1.11141920
894.00  -9.19701641   1.11887565
896.00  -9.25525464   1.12636514
898.00  -9.31361922   1.13388774
900.00  -9.37211013   1.14144350
902.00  -9.43072733   1.14903251
904.00  -9.48947081   1.15665483
906.00  -9.54834054   1.16431054
908.00  -9.60733648   1.17199970
910.00  -9.66645863   1.17972239
912.00  -9.72570695   1.18747867
914.00  -9.78508142   1.19526861
916.00  -9.84458200   1.20309229
918.00  -9.90420869   1.21094978
920.00  -9.96396144   1.21884114
922.00 -10.02384024   1.22676644
924.00 -10.08384506   1.23472576
926.00 -10.14397587   1.24271916
928.00 -10.20423265   1.25074672
930.00 -10.26461537   1.25880851
932.00 -10.32512401   1.26690458
934.00 -10.38575854   1.27503503
936.00 -10.44651894   1.28319990
938.00 -10.50740517   1.29139929
940.00 -10.56841721   1.29963324
942.00 -10.62955504   1.30790184
944.00 -10.69081863   1.31620515
946.00 -10.75220796   1.32454325
948.00 -10.81372299   1.33291620
950.00 -10.87536370   1.34132407
952.00 -10.93713007   1.34976694
954.00 -10.99902207   1.35824487
956.00 -11.06103967   1.36675792
958.00 -11.12318285   1.37530618
960.00 -11.18545157   1.38388972
962.00 -11.24784582   1.39250859
964.00 -11.31036556   1.40116287
966.00 -11.37301077   1.40985263
968.00 -11.43578142   1.41857794
970.00 -11.49867749   1.42733887
972.00 -11.56169895   1.43613548
974.00 -11.62484577   1.44496785
976.00 -11.68811792   1.45383605
978.00 -11.75151539   1.46274015
980.00 -11.81503813   1.47168021
982.00 -11.87868612   1.48065630
984.00 -11.94245935   1.48966850
986.00 -12.00635777   1.49871687
988.00 -12.07038136   1.50780148
990.00 -12.13453010   1.51692240
992.00 -12.19880395   1.52607971
994.00 -12.26320290   1.53527346
996.00 -12.32772690   1.54450373
998.00 -12.39237594   1.55377059
1000.00 -12.45714999   1.56307411
1002.00 -12.52204902   1.57241435
1004.00 -12.58707300   1.58179139
1006.00 -12.65222190   1.59120529
1008.00 -12.71749570   1.60065613
1010.00 -12.78289437   1.61014396
1012.00 -12.84841788   1.61966887
1014.00 -12.91406620   1.62923091
1016.00 -12.97983931   1.63883017
1018.00 -13.04573717   1.64846670
1020.00 -13.11175976   1.65814057
1022.00 -13.17790706   1.66785187
1024.00 -13.24417902   1.67760064
1026.00 -13.31057563   1.68738697
1028.00 -13.37709685   1.69721092
1030.00 -13.44374267   1.70707255
1032.00 -13.51051304   1.71697195
1034.00 -13.57740794   1.72690917
1036.00 -13.64442734   1.73688429
1038.00 -13.71157122   1.74689737
1040.00 -13.77883954   1.75694848
1042.00 -13.84623228   1.76703770
1044.00 -13.91374941   1.77716508
1046.00 -13.98139089   1.78733070
1048.00 -14.04915671   1.79753463
1050.00 -14.11704682   1.80777693
1052.00 -14.18506121   1.81805768
1054.00 -14.25319985   1.82837693
1056.00 -14.32146269   1.83873477
1058.00 -14.38984973   1.84913125
1060.00 -14.45836092   1.85956645
1062.00 -14.52699624   1.87004044
1064.00 -14.59575565   1.88055327
1066.00 -14.66463914   1.89110503
1068.00 -14.73364666   1.90169578
1070.00 -14.80277820   1.91232558
1072.00 -14.87203371   1.92299451
1074.00 -14.94141318   1.93370263
1076.00 -15.01091657   1.94445002
1078.00 -15.08054385   1.95523673
1080.00 -15.15029500   1.96606284
1082.00 -15.22016998   1.97692841
1084.00 -15.29016876   1.98783352
1086.00 -15.36029132   1.99877823
1088.00 -15.43053762   2.00976261
1090.00 -15.50090764   2.02078672
1092.00 -15.57140134   2.03185064
1094.00 -15.64201869   2.04295443
1096.00 -15.71275967   2.05409817
1098.00 -15.78362425   2.06528190
1100.00 -15.85461239   2.07650572
1102.00 -15.92572406   2.08776968
1104.00 -15.99695924   2.09907385
1106.00 -16.06831790   2.11041829
1108.00 -16.13979999   2.12180309
1110.00 -16.21140550   2.13322829
1112.00 -16.28313440   2.14469398
1114.00 -16.35498665   2.15620022
1116.00 -16.42696222   2.16774707
1118.00 -16.49906108   2.17933461
1120.00 -16.57128320   2.19096290
1122.00 -16.64362856   2.20263200
1124.00 -16.71609711   2.21434199
1126.00 -16.78868884   2.22609294
1128.00 -16.86140370   2.23788490
1130.00 -16.93424167   2.24971796
1132.00 -17.00720272   2.26159217
1134.00 -17.08028682   2.27350760
1136.00 -17.15349393   2.28546431
1138.00 -17.22682402   2.29746239
1140.00 -17.30027707   2.30950189
1142.00 -17.37385304   2.32158288
1144.00 -17.44755190   2.33370543
1146.00 -17.52137363   2.34586960
1148.00 -17.59531818   2.35807547
1150.00 -17.66938553   2.37032309
1152.00 -17.74357564   2.38261254
1154.00 -17.81788849   2.39494388
1156.00 -17.89232404   2.40731718
1158.00 -17.96688227   2.41973251
1160.00 -18.04156314   2.43218993
1162.00 -18.11636661   2.44468952
1164.00 -18.19129266   2.45723133
1166.00 -18.26634126   2.46981543
1168.00 -18.34151237   2.48244189
1170.00 -18.41680597   2.49511078
1172.00 -18.49222201   2.50782217
1174.00 -18.56776048   2.52057611
1176.00 -18.64342133   2.53337268
1178.00 -18.71920453   2.54621195
1180.00 -18.79511006   2.55909398
1182.00 -18.87113788   2.57201883
1184.00 -18.94728796   2.58498657
1186.00 -19.02356026   2.59799728
1188.00 -19.09995476   2.61105101
1190.00 -19.17647142   2.62414783
1192.00 -19.25311021   2.63728782
1194.00 -19.32987110   2.65047102
1196.00 -19.40675406   2.66369752
1198.00 -19.48375904   2.67696738
1200.00 -19.56088603   2.69028066
1202.00 -19.63813499   2.70363743
1204.00 -19.71550588   2.71703776
1206.00 -19.79299867   2.73048171
1208.00 -19.87061334   2.74396935
1210.00 -19.94834984   2.75750074
1212.00 -20.02620814   2.77107596
1214.00 -20.10418822   2.78469506
1216.00 -20.18229004   2.79835811
1218.00 -20.26051356   2.81206518
1220.00 -20.33885876   2.82581634
1222.00 -20.41732559   2.83961165
1224.00 -20.49591404   2.85345118
1226.00 -20.57462406   2.86733498
1228.00 -20.65345562   2.88126314
1230.00 -20.73240868   2.89523571
1232.00 -20.81148323   2.90925276
1234.00 -20.89067921   2.92331435
1236.00 -20.96999660   2.93742056
1238.00 -21.04943537   2.95157144
1240.00 -21.12899548   2.96576707
1242.00 -21.20867689   2.98000750
1244.00 -21.28847958   2.99429281
1246.00 -21.36840351   3.00862306
1248.00 -21.44844865   3.02299831
1250.00 -21.52861497   3.03741863
1252.00 -21.60890242   3.05188409
1254.00 -21.68931098   3.06639475
1256.00 -21.76984061   3.08095067
1258.00 -21.85049128   3.09555193
1260.00 -21.93126296   3.11019858
1262.00 -22.01215560   3.12489070
1264.00 -22.09316919   3.13962835
1266.00 -22.17430367   3.15441158
1268.00 -22.25555903   3.16924048
1270.00 -22.33693522   3.18411510
1272.00 -22.41843221   3.19903550
1274.00 -22.50004997   3.21400176
1276.00 -22.58178846   3.22901394
1278.00 -22.66364765   3.24407211
1280.00 -22.74562751   3.25917632
1282.00 -22.82772799   3.27432664
1284.00 -22.90994907   3.28952315
1286.00 -22.99229071   3.30476589
1288.00 -23.07475287   3.32005495
1290.00 -23.15733553   3.33539038
1292.00 -23.24003864   3.35077224
1294.00 -23.32286218   3.36620061
1296.00 -23.40580610   3.38167555
1298.00 -23.48887038   3.39719712
