wavelength(nm)         real         imag
100.00   3.87302559   0.00025776
102.00   3.87193592   0.00027354
104.00   3.87082469   0.00028995
106.00   3.86969189   0.00030700
108.00   3.86853752   0.00032470
110.00   3.86736159   0.00034308
112.00   3.86616408   0.00036213
114.00   3.86494501   0.00038188
116.00   3.86370438   0.00040233
118.00   3.86244217   0.00042350
120.00   3.86115841   0.00044540
122.00   3.85985307   0.00046804
124.00   3.85852618   0.00049144
126.00   3.85717772   0.00051560
128.00   3.85580770   0.00054054
130.00   3.85441611   0.00056627
132.00   3.85300297   0.00059281
134.00   3.85156826   0.00062016
136.00   3.85011200   0.00064835
138.00   3.84863417   0.00067737
140.00   3.84713478   0.00070725
142.00   3.84561384   0.00073799
144.00   3.84407134   0.00076961
146.00   3.84250728   0.00080212
148.00   3.84092167   0.00083553
150.00   3.83931450   0.00086986
152.00   3.83768577   0.00090511
154.00   3.83603549   0.00094131
156.00   3.83436366   0.00097846
158.00   3.83267028   0.00101657
160.00   3.83095534   0.00105566
162.00   3.82921885   0.00109573
164.00   3.82746081   0.00113681
166.00   3.82568122   0.00117890
168.00   3.82388008   0.00122202
170.00   3.82205740   0.00126618
172.00   3.82021316   0.00131139
174.00   3.81834738   0.00135766
176.00   3.81646006   0.00140501
178.00   3.81455119   0.00145344
180.00   3.81262077   0.00150298
182.00   3.81066882   0.00155363
184.00   3.80869532   0.00160540
186.00   3.80670027   0.00165831
188.00   3.80468369   0.00171237
190.00   3.80264557   0.00176759
192.00   3.80058591   0.00182398
194.00   3.79850471   0.00188157
196.00   3.79640198   0.00194035
198.00   3.79427770   0.00200034
200.00   3.79213190   0.00206156
202.00   3.78996455   0.00212401
204.00   3.78777568   0.00218771
206.00   3.78556527   0.00225267
208.00   3.78333333   0.00231890
210.00   3.78107987   0.00238642
212.00   3.77880487   0.00245523
214.00   3.77650834   0.00252536
216.00   3.77419029   0.00259681
218.00   3.77185071   0.00266959
220.00   3.76948960   0.00274372
222.00   3.76710697   0.00281921
224.00   3.76470282   0.00289607
226.00   3.76227714   0.00297431
228.00   3.75982995   0.00305395
230.00   3.75736123   0.00313500
232.00   3.75487099   0.00321747
234.00   3.75235924   0.00330137
236.00   3.74982597   0.00338672
238.00   3.74727118   0.00347352
240.00   3.74469488   0.00356180
242.00   3.74209707   0.00365155
244.00   3.73947774   0.00374280
246.00   3.73683690   0.00383556
248.00   3.73417455   0.00392984
250.00   3.73149070   0.00402565
252.00   3.72878533   0.00412300
254.00   3.72605846   0.00422191
256.00   3.72331008   0.00432239
258.00   3.72054020   0.00442445
260.00   3.71774882   0.00452810
262.00   3.71493594   0.00463335
264.00   3.71210155   0.00474023
266.00   3.70924566   0.00484873
268.00   3.70636828   0.00495888
270.00   3.70346940   0.00507068
272.00   3.70054903   0.00518414
274.00   3.69760716   0.00529929
276.00   3.69464380   0.00541613
278.00   3.69165894   0.00553467
280.00   3.68865260   0.00565493
282.00   3.68562477   0.00577691
284.00   3.68257544   0.00590064
286.00   3.67950464   0.00602612
288.00   3.67641235   0.00615336
290.00   3.67329857   0.00628238
292.00   3.67016331   0.00641319
294.00   3.66700657   0.00654580
296.00   3.66382836   0.00668023
298.00   3.66062866   0.00681648
300.00   3.65740749   0.00695457
302.00   3.65416484   0.00709452
304.00   3.65090072   0.00723632
306.00   3.64761512   0.00738001
308.00   3.64430806   0.00752558
310.00   3.64097952   0.00767304
312.00   3.63762952   0.00782243
314.00   3.63425805   0.00797373
316.00   3.63086511   0.00812698
318.00   3.62745072   0.00828217
320.00   3.62401485   0.00843932
322.00   3.62055753   0.00859845
324.00   3.61707875   0.00875956
326.00   3.61357851   0.00892268
328.00   3.61005682   0.00908780
330.00   3.60651367   0.00925494
332.00   3.60294907   0.00942412
334.00   3.59936301   0.00959535
336.00   3.59575551   0.00976864
338.00   3.59212656   0.00994399
340.00   3.58847616   0.01012144
342.00   3.58480432   0.01030097
344.00   3.58111103   0.01048262
346.00   3.57739630   0.01066639
348.00   3.57366013   0.01085229
350.00   3.56990252   0.01104033
352.00   3.56612347   0.01123054
354.00   3.56232299   0.01142291
356.00   3.55850108   0.01161746
358.00   3.55465773   0.01181421
360.00   3.55079296   0.01201316
362.00   3.54690675   0.01221434
364.00   3.54299912   0.01241774
366.00   3.53907006   0.01262339
368.00   3.53511958   0.01283129
370.00   3.53114767   0.01304146
372.00   3.52715435   0.01325391
374.00   3.52313961   0.01346865
376.00   3.51910345   0.01368569
378.00   3.51504587   0.01390506
380.00   3.51096689   0.01412674
382.00   3.50686649   0.01435078
384.00   3.50274468   0.01457716
386.00   3.49860147   0.01480591
388.00   3.49443684   0.01503703
390.00   3.49025082   0.01527055
392.00   3.48604339   0.01550647
394.00   3.48181456   0.01574480
396.00   3.47756434   0.01598555
398.00   3.47329271   0.01622875
400.00   3.46899970   0.01647440
402.00   3.46468528   0.01672251
404.00   3.46034948   0.01697309
406.00   3.45599229   0.01722616
408.00   3.45161371   0.01748173
410.00   3.44721375   0.01773981
412.00   3.44279240   0.01800042
414.00   3.43834967   0.01826356
416.00   3.43388556   0.01852925
418.00   3.42940007   0.01879750
420.00   3.42489321   0.01906832
422.00   3.42036497   0.01934173
424.00   3.41581537   0.01961773
426.00   3.41124439   0.01989634
428.00   3.40665204   0.02017758
430.00   3.40203833   0.02046145
432.00   3.39740326   0.02074796
434.00   3.39274682   0.02103713
436.00   3.38806902   0.02132897
438.00   3.38336987   0.02162349
440.00   3.37864936   0.02192071
442.00   3.37390749   0.02222063
444.00   3.36914428   0.02252327
446.00   3.36435971   0.02282864
448.00   3.35955380   0.02313675
450.00   3.35472655   0.02344762
452.00   3.34987795   0.02376126
454.00   3.34500800   0.02407767
456.00   3.34011672   0.02439688
458.00   3.33520411   0.02471889
460.00   3.33027015   0.02504371
462.00   3.32531487   0.02537137
464.00   3.32033826   0.02570186
466.00   3.31534031   0.02603520
468.00   3.31032104   0.02637141
470.00   3.30528045   0.02671050
472.00   3.30021854   0.02705247
474.00   3.29513530   0.02739735
476.00   3.29003075   0.02774513
478.00   3.28490489   0.02809585
480.00   3.27975771   0.02844949
482.00   3.27458922   0.02880609
484.00   3.26939942   0.02916565
486.00   3.26418832   0.02952818
488.00   3.25895591   0.02989370
490.00   3.25370220   0.03026221
492.00   3.24842720   0.03063374
494.00   3.24313089   0.03100828
496.00   3.23781329   0.03138586
498.00   3.23247440   0.03176649
500.00   3.22711422   0.03215017
502.00   3.22173275   0.03253692
504.00   3.21633000   0.03292676
506.00   3.21090596   0.03331969
508.00   3.20546064   0.03371573
510.00   3.19999405   0.03411488
512.00   3.19450618   0.03451716
514.00   3.18899703   0.03492259
516.00   3.18346662   0.03533117
518.00   3.17791493   0.03574292
520.00   3.17234198   0.03615785
522.00   3.16674777   0.03657597
524.00   3.16113229   0.03699729
526.00   3.15549556   0.03742183
528.00   3.14983757   0.03784959
530.00   3.14415832   0.03828059
532.00   3.13845783   0.03871484
534.00   3.13273608   0.03915236
536.00   3.12699309   0.03959315
538.00   3.12122886   0.04003723
540.00   3.11544338   0.04048461
542.00   3.10963666   0.04093530
544.00   3.10380871   0.04138932
546.00   3.09795952   0.04184667
548.00   3.09208911   0.04230736
550.00   3.08619746   0.04277142
552.00   3.08028459   0.04323885
554.00   3.07435049   0.04370966
556.00   3.06839517   0.04418387
558.00   3.06241864   0.04466148
560.00   3.05642088   0.04514252
562.00   3.05040192   0.04562699
564.00   3.04436174   0.04611490
566.00   3.03830036   0.04660626
568.00   3.03221777   0.04710110
570.00   3.02611398   0.04759941
572.00   3.01998898   0.04810122
574.00   3.01384279   0.04860653
576.00   3.00767541   0.04911535
578.00   3.00148683   0.04962771
580.00   2.99527706   0.05014360
582.00   2.98904611   0.05066305
584.00   2.98279397   0.05118606
586.00   2.97652065   0.05171264
588.00   2.97022616   0.05224282
590.00   2.96391048   0.05277659
592.00   2.95757364   0.05331398
594.00   2.95121562   0.05385498
596.00   2.94483643   0.05439963
598.00   2.93843609   0.05494792
600.00   2.93201457   0.05549987
602.00   2.92557190   0.05605550
604.00   2.91910808   0.05661481
606.00   2.91262309   0.05717781
608.00   2.90611696   0.05774452
610.00   2.89958968   0.05831495
612.00   2.89304126   0.05888912
614.00   2.88647169   0.05946702
616.00   2.87988098   0.06004868
618.00   2.87326914   0.06063411
620.00   2.86663616   0.06122332
622.00   2.85998205   0.06181632
624.00   2.85330682   0.06241312
626.00   2.84661045   0.06301374
628.00   2.83989297   0.06361819
630.00   2.83315437   0.06422647
632.00   2.82639465   0.06483861
634.00   2.81961381   0.06545461
636.00   2.81281187   0.06607448
638.00   2.80598882   0.06669824
640.00   2.79914466   0.06732590
642.00   2.79227941   0.06795747
644.00   2.78539305   0.06859296
646.00   2.77848560   0.06923239
648.00   2.77155705   0.06987576
650.00   2.76460742   0.07052309
652.00   2.75763670   0.07117439
654.00   2.75064489   0.07182968
656.00   2.74363201   0.07248895
658.00   2.73659804   0.07315224
660.00   2.72954300   0.07381954
662.00   2.72246690   0.07449087
664.00   2.71536972   0.07516624
666.00   2.70825147   0.07584567
668.00   2.70111217   0.07652916
670.00   2.69395180   0.07721673
672.00   2.68677038   0.07790839
674.00   2.67956791   0.07860415
676.00   2.67234439   0.07930402
678.00   2.66509982   0.08000801
680.00   2.65783420   0.08071615
682.00   2.65054755   0.08142843
684.00   2.64323986   0.08214487
686.00   2.63591113   0.08286548
688.00   2.62856137   0.08359028
690.00   2.62119059   0.08431927
692.00   2.61379878   0.08505247
694.00   2.60638595   0.08578989
696.00   2.59895210   0.08653155
698.00   2.59149724   0.08727744
700.00   2.58402136   0.08802759
702.00   2.57652448   0.08878201
704.00   2.56900659   0.08954070
706.00   2.56146770   0.09030369
708.00   2.55390780   0.09107098
710.00   2.54632692   0.09184258
712.00   2.53872504   0.09261851
714.00   2.53110217   0.09339877
716.00   2.52345832   0.09418339
718.00   2.51579349   0.09497237
720.00   2.50810767   0.09576572
722.00   2.50040088   0.09656345
724.00   2.49267312   0.09736559
726.00   2.48492439   0.09817213
728.00   2.47715469   0.09898309
730.00   2.46936403   0.09979848
732.00   2.46155241   0.10061832
734.00   2.45371984   0.10144261
736.00   2.44586631   0.10227137
738.00   2.43799184   0.10310461
740.00   2.43009642   0.10394234
742.00   2.42218006   0.10478458
744.00   2.41424276   0.10563132
746.00   2.40628452   0.10648260
748.00   2.39830535   0.10733841
750.00   2.39030526   0.10819877
752.00   2.38228423   0.10906370
754.00   2.37424229   0.10993320
756.00   2.36617943   0.11080728
758.00   2.35809566   0.11168596
760.00   2.34999097   0.11256925
762.00   2.34186538   0.11345715
764.00   2.33371888   0.11434969
766.00   2.32555148   0.11524688
768.00   2.31736319   0.11614872
770.00   2.30915400   0.11705522
772.00   2.30092392   0.11796641
774.00   2.29267296   0.11888229
776.00   2.28440111   0.11980286
778.00   2.27610839   0.12072816
780.00   2.26779479   0.12165817
782.00   2.25946031   0.12259293
784.00   2.25110497   0.12353244
786.00   2.24272877   0.12447670
788.00   2.23433170   0.12542574
790.00   2.22591377   0.12637956
792.00   2.21747499   0.12733818
794.00   2.20901536   0.12830161
796.00   2.20053489   0.12926985
798.00   2.19203357   0.13024293
800.00   2.18351141   0.13122085
802.00   2.17496842   0.13220362
804.00   2.16640459   0.13319126
806.00   2.15781993   0.13418378
808.00   2.14921446   0.13518118
810.00   2.14058816   0.13618349
812.00   2.13194104   0.13719071
814.00   2.12327311   0.13820285
816.00   2.11458437   0.13921993
818.00   2.10587482   0.14024196
820.00   2.09714447   0.14126895
822.00   2.08839332   0.14230091
824.00   2.07962138   0.14333785
826.00   2.07082865   0.14437978
828.00   2.06201513   0.14542672
830.00   2.05318083   0.14647867
832.00   2.04432574   0.14753566
834.00   2.03544988   0.14859769
836.00   2.02655325   0.14966476
838.00   2.01763585   0.15073691
840.00   2.00869769   0.15181412
842.00   1.99973877   0.15289643
844.00   1.99075909   0.15398383
846.00   1.98175865   0.15507634
848.00   1.97273747   0.15617397
850.00   1.96369555   0.15727674
852.00   1.95463288   0.15838465
854.00   1.94554947   0.15949772
856.00   1.93644533   0.16061596
858.00   1.92732047   0.16173938
860.00   1.91817487   0.16286798
862.00   1.90900856   0.16400179
864.00   1.89982152   0.16514082
866.00   1.89061378   0.16628507
868.00   1.88138532   0.16743455
870.00   1.87213616   0.16858929
872.00   1.86286630   0.16974928
874.00   1.85357574   0.17091455
876.00   1.84426448   0.17208510
878.00   1.83493254   0.17326095
880.00   1.82557991   0.17444210
882.00   1.81620659   0.17562858
884.00   1.80681260   0.17682038
886.00   1.79739794   0.17801752
888.00   1.78796260   0.17922001
890.00   1.77850660   0.18042787
892.00   1.76902994   0.18164111
894.00   1.75953263   0.18285973
896.00   1.75001465   0.18408375
898.00   1.74047603   0.18531318
900.00   1.73091676   0.18654803
902.00   1.72133686   0.18778831
904.00   1.71173631   0.18903404
906.00   1.70211513   0.19028523
908.00   1.69247333   0.19154188
910.00   1.68281090   0.19280401
912.00   1.67312784   0.19407163
914.00   1.66342417   0.19534476
916.00   1.65369989   0.19662339
918.00   1.64395500   0.19790755
920.00   1.63418951   0.19919725
922.00   1.62440342   0.20049250
924.00   1.61459673   0.20179330
926.00   1.60476945   0.20309968
928.00   1.59492158   0.20441164
930.00   1.58505313   0.20572919
932.00   1.57516411   0.20705234
934.00   1.56525450   0.20838111
936.00   1.55532433   0.20971551
938.00   1.54537359   0.21105555
940.00   1.53540229   0.21240124
942.00   1.52541043   0.21375259
944.00   1.51539802   0.21510962
946.00   1.50536506   0.21647233
948.00   1.49531156   0.21784073
950.00   1.48523751   0.21921484
952.00   1.47514293   0.22059468
954.00   1.46502782   0.22198024
956.00   1.45489218   0.22337154
958.00   1.44473601   0.22476860
960.00   1.43455933   0.22617142
962.00   1.42436213   0.22758002
964.00   1.41414443   0.22899440
966.00   1.40390621   0.23041458
968.00   1.39364750   0.23184057
970.00   1.38336829   0.23327239
972.00   1.37306859   0.23471003
974.00   1.36274840   0.23615352
976.00   1.35240772   0.23760287
978.00   1.34204657   0.23905808
980.00   1.33166494   0.24051917
982.00   1.32126284   0.24198614
984.00   1.31084028   0.24345902
986.00   1.30039725   0.24493781
988.00   1.28993377   0.24642253
990.00   1.27944983   0.24791317
992.00   1.26894545   0.24940977
994.00   1.25842062   0.25091232
996.00   1.24787535   0.25242084
998.00   1.23730965   0.25393534
1000.00   1.22672352   0.25545583
1002.00   1.21611696   0.25698232
1004.00   1.20548999   0.25851482
1006.00   1.19484259   0.26005335
1008.00   1.18417479   0.26159792
1010.00   1.17348657   0.26314853
1012.00   1.16277795   0.26470520
1014.00   1.15204894   0.26626794
1016.00   1.14129953   0.26783676
1018.00   1.13052973   0.26941168
1020.00   1.11973955   0.27099270
1022.00   1.10892899   0.27257983
1024.00   1.09809805   0.27417309
1026.00   1.08724674   0.27577248
1028.00   1.07637506   0.27737803
1030.00   1.06548303   0.27898973
1032.00   1.05457063   0.28060761
1034.00   1.04363789   0.28223166
1036.00   1.03268479   0.28386191
1038.00   1.02171136   0.28549837
1040.00   1.01071758   0.28714104
1042.00   0.99970347   0.28878994
1044.00   0.98866903   0.29044507
1046.00   0.97761427   0.29210646
1048.00   0.96653919   0.29377410
1050.00   0.95544380   0.29544802
1052.00   0.94432809   0.29712822
1054.00   0.93319208   0.29881471
1056.00   0.92203577   0.30050751
1058.00   0.91085916   0.30220662
1060.00   0.89966226   0.30391207
1062.00   0.88844508   0.30562385
1064.00   0.87720761   0.30734198
1066.00   0.86594987   0.30906647
1068.00   0.85467185   0.31079733
1070.00   0.84337357   0.31253458
1072.00   0.83205502   0.31427822
1074.00   0.82071622   0.31602827
1076.00   0.80935716   0.31778473
1078.00   0.79797786   0.31954762
1080.00   0.78657831   0.32131695
1082.00   0.77515853   0.32309273
1084.00   0.76371851   0.32487497
1086.00   0.75225826   0.32666368
1088.00   0.74077779   0.32845888
1090.00   0.72927710   0.33026057
1092.00   0.71775620   0.33206876
1094.00   0.70621508   0.33388347
1096.00   0.69465377   0.33570471
1098.00   0.68307225   0.33753249
1100.00   0.67147054   0.33936682
1102.00   0.65984864   0.34120770
1104.00   0.64820655   0.34305516
1106.00   0.63654429   0.34490920
1108.00   0.62486185   0.34676984
1110.00   0.61315924   0.34863708
1112.00   0.60143647   0.35051094
1114.00   0.58969354   0.35239142
1116.00   0.57793045   0.35427854
1118.00   0.56614721   0.35617231
1120.00   0.55434383   0.35807274
1122.00   0.54252030   0.35997985
1124.00   0.53067665   0.36189363
1126.00   0.51881286   0.36381411
1128.00   0.50692895   0.36574129
1130.00   0.49502491   0.36767518
1132.00   0.48310077   0.36961580
1134.00   0.47115651   0.37156316
1136.00   0.45919215   0.37351727
1138.00   0.44720769   0.37547813
1140.00   0.43520313   0.37744577
1142.00   0.42317849   0.37942019
1144.00   0.41113376   0.38140140
1146.00   0.39906895   0.38338941
1148.00   0.38698407   0.38538423
1150.00   0.37487912   0.38738588
1152.00   0.36275411   0.38939437
1154.00   0.35060903   0.39140970
1156.00   0.33844390   0.39343189
1158.00   0.32625873   0.39546095
1160.00   0.31405351   0.39749688
1162.00   0.30182825   0.39953971
1164.00   0.28958296   0.40158944
1166.00   0.27731764   0.40364608
1168.00   0.26503230   0.40570965
1170.00   0.25272694   0.40778014
1172.00   0.24040157   0.40985759
1174.00   0.22805619   0.41194198
1176.00   0.21569081   0.41403335
1178.00   0.20330544   0.41613169
1180.00   0.19090007   0.41823702
1182.00   0.17847472   0.42034935
1184.00   0.16602938   0.42246869
1186.00   0.15356407   0.42459506
1188.00   0.14107879   0.42672845
1190.00   0.12857354   0.42886888
1192.00   0.11604834   0.43101637
1194.00   0.10350318   0.43317093
1196.00   0.09093806   0.43533256
1198.00   0.07835301   0.43750127
1200.00   0.06574802   0.43967708
1202.00   0.05312309   0.44186000
1204.00   0.04047824   0.44405004
1206.00   0.02781346   0.44624721
1208.00   0.01512876   0.44845152
1210.00   0.00242416   0.45066297
1212.00  -0.01030036   0.45288159
1214.00  -0.02304477   0.45510739
1216.00  -0.03580908   0.45734036
1218.00  -0.04859328   0.45958053
1220.00  -0.06139737   0.46182791
1222.00  -0.07422134   0.46408250
1224.00  -0.08706518   0.46634432
1226.00  -0.09992889   0.46861337
1228.00  -0.11281246   0.47088967
1230.00  -0.12571590   0.47317323
1232.00  -0.13863918   0.47546406
1234.00  -0.15158231   0.47776217
1236.00  -0.16454529   0.48006757
1238.00  -0.17752810   0.48238028
1240.00  -0.19053074   0.48470029
1242.00  -0.20355321   0.48702763
1244.00  -0.21659550   0.48936230
1246.00  -0.22965760   0.49170432
1248.00  -0.24273951   0.49405369
1250.00  -0.25584122   0.49641043
1252.00  -0.26896274   0.49877454
1254.00  -0.28210404   0.50114604
1256.00  -0.29526514   0.50352494
1258.00  -0.30844601   0.50591125
1260.00  -0.32164666   0.50830498
1262.00  -0.33486708   0.51070613
1264.00  -0.34810727   0.51311473
1266.00  -0.36136721   0.51553078
1268.00  -0.37464691   0.51795429
1270.00  -0.38794636   0.52038527
1272.00  -0.40126555   0.52282374
1274.00  -0.41460448   0.52526970
1276.00  -0.42796314   0.52772317
1278.00  -0.44134152   0.53018415
1280.00  -0.45473963   0.53265266
1282.00  -0.46815745   0.53512870
1284.00  -0.48159498   0.53761229
1286.00  -0.49505221   0.54010344
1288.00  -0.50852914   0.54260215
1290.00  -0.52202576   0.54510845
1292.00  -0.53554207   0.54762233
1294.00  -0.54907806   0.55014382
1296.00  -0.56263372   0.55267291
1298.00  -0.57620906   0.55520963
