wavelength(nm)         real         imag
100.00   3.77389433   0.00120505
102.00   3.76880015   0.00127881
104.00   3.76360513   0.00135551
106.00   3.75830927   0.00143522
108.00   3.75291259   0.00151800
110.00   3.74741507   0.00160390
112.00   3.74181673   0.00169297
114.00   3.73611756   0.00178529
116.00   3.73031757   0.00188090
118.00   3.72441676   0.00197987
120.00   3.71841514   0.00208225
122.00   3.71231270   0.00218810
124.00   3.70610944   0.00229747
126.00   3.69980538   0.00241043
128.00   3.69340052   0.00252703
130.00   3.68689485   0.00264734
132.00   3.68028838   0.00277140
134.00   3.67358111   0.00289927
136.00   3.66677305   0.00303103
138.00   3.65986420   0.00316671
140.00   3.65285456   0.00330638
142.00   3.64574413   0.00345010
144.00   3.63853292   0.00359792
146.00   3.63122093   0.00374990
148.00   3.62380817   0.00390611
150.00   3.61629463   0.00406659
152.00   3.60868032   0.00423141
154.00   3.60096525   0.00440062
156.00   3.59314942   0.00457429
158.00   3.58523282   0.00475246
160.00   3.57721547   0.00493520
162.00   3.56909737   0.00512256
164.00   3.56087852   0.00531461
166.00   3.55255892   0.00551139
168.00   3.54413858   0.00571297
170.00   3.53561751   0.00591941
172.00   3.52699570   0.00613076
174.00   3.51827316   0.00634708
176.00   3.50944989   0.00656843
178.00   3.50052590   0.00679486
180.00   3.49150119   0.00702644
182.00   3.48237577   0.00726322
184.00   3.47314963   0.00750525
186.00   3.46382279   0.00775261
188.00   3.45439525   0.00800534
190.00   3.44486701   0.00826350
192.00   3.43523807   0.00852715
194.00   3.42550845   0.00879634
196.00   3.41567813   0.00907114
198.00   3.40574714   0.00935161
200.00   3.39571547   0.00963779
202.00   3.38558312   0.00992975
204.00   3.37535011   0.01022755
206.00   3.36501644   0.01053124
208.00   3.35458210   0.01084088
210.00   3.34404711   0.01115653
212.00   3.33341147   0.01147825
214.00   3.32267518   0.01180609
216.00   3.31183826   0.01214011
218.00   3.30090069   0.01248036
220.00   3.28986250   0.01282692
222.00   3.27872368   0.01317983
224.00   3.26748424   0.01353915
226.00   3.25614418   0.01390494
228.00   3.24470351   0.01427725
230.00   3.23316223   0.01465615
232.00   3.22152035   0.01504169
234.00   3.20977787   0.01543394
236.00   3.19793481   0.01583293
238.00   3.18599115   0.01623875
240.00   3.17394692   0.01665143
242.00   3.16180211   0.01707104
244.00   3.14955673   0.01749765
246.00   3.13721078   0.01793129
248.00   3.12476428   0.01837204
250.00   3.11221722   0.01881995
252.00   3.09956961   0.01927507
254.00   3.08682146   0.01973747
256.00   3.07397277   0.02020721
258.00   3.06102355   0.02068433
260.00   3.04797380   0.02116890
262.00   3.03482353   0.02166097
264.00   3.02157275   0.02216061
266.00   3.00822146   0.02266786
268.00   2.99476966   0.02318280
270.00   2.98121737   0.02370546
272.00   2.96756458   0.02423592
274.00   2.95381131   0.02477423
276.00   2.93995757   0.02532045
278.00   2.92600334   0.02587463
280.00   2.91194865   0.02643684
282.00   2.89779350   0.02700712
284.00   2.88353790   0.02758554
286.00   2.86918184   0.02817215
288.00   2.85472534   0.02876702
290.00   2.84016841   0.02937019
292.00   2.82551105   0.02998173
294.00   2.81075326   0.03060170
296.00   2.79589506   0.03123014
298.00   2.78093645   0.03186713
300.00   2.76587743   0.03251271
302.00   2.75071801   0.03316695
304.00   2.73545821   0.03382989
306.00   2.72009802   0.03450160
308.00   2.70463745   0.03518214
310.00   2.68907652   0.03587157
312.00   2.67341522   0.03656993
314.00   2.65765356   0.03727729
316.00   2.64179155   0.03799370
318.00   2.62582920   0.03871923
320.00   2.60976652   0.03945393
322.00   2.59360350   0.04019785
324.00   2.57734016   0.04095106
326.00   2.56097651   0.04171361
328.00   2.54451255   0.04248555
330.00   2.52794829   0.04326696
332.00   2.51128374   0.04405787
334.00   2.49451890   0.04485836
336.00   2.47765378   0.04566848
338.00   2.46068839   0.04648828
340.00   2.44362274   0.04731782
342.00   2.42645683   0.04815716
344.00   2.40919067   0.04900636
346.00   2.39182427   0.04986548
348.00   2.37435764   0.05073456
350.00   2.35679078   0.05161368
352.00   2.33912370   0.05250287
354.00   2.32135641   0.05340222
356.00   2.30348892   0.05431176
358.00   2.28552123   0.05523156
360.00   2.26745336   0.05616167
362.00   2.24928530   0.05710216
364.00   2.23101708   0.05805307
366.00   2.21264869   0.05901447
368.00   2.19418014   0.05998642
370.00   2.17561145   0.06096896
372.00   2.15694262   0.06196216
374.00   2.13817366   0.06296608
376.00   2.11930457   0.06398076
378.00   2.10033537   0.06500628
380.00   2.08126607   0.06604268
382.00   2.06209666   0.06709003
384.00   2.04282717   0.06814837
386.00   2.02345759   0.06921777
388.00   2.00398794   0.07029829
390.00   1.98441823   0.07138998
392.00   1.96474846   0.07249289
394.00   1.94497864   0.07360709
396.00   1.92510879   0.07473264
398.00   1.90513890   0.07586958
400.00   1.88506900   0.07701798
402.00   1.86489908   0.07817789
404.00   1.84462916   0.07934937
406.00   1.82425924   0.08053248
408.00   1.80378934   0.08172728
410.00   1.78321946   0.08293381
412.00   1.76254961   0.08415215
414.00   1.74177980   0.08538234
416.00   1.72091004   0.08662444
418.00   1.69994034   0.08787851
420.00   1.67887071   0.08914460
422.00   1.65770116   0.09042278
424.00   1.63643170   0.09171310
426.00   1.61506233   0.09301562
428.00   1.59359306   0.09433039
430.00   1.57202391   0.09565747
432.00   1.55035489   0.09699692
434.00   1.52858599   0.09834880
436.00   1.50671725   0.09971315
438.00   1.48474865   0.10109004
440.00   1.46268021   0.10247953
442.00   1.44051195   0.10388167
444.00   1.41824387   0.10529652
446.00   1.39587598   0.10672413
448.00   1.37340829   0.10816457
450.00   1.35084081   0.10961788
452.00   1.32817355   0.11108413
454.00   1.30540652   0.11256338
456.00   1.28253974   0.11405567
458.00   1.25957320   0.11556107
460.00   1.23650692   0.11707963
462.00   1.21334092   0.11861141
464.00   1.19007519   0.12015647
466.00   1.16670975   0.12171486
468.00   1.14324462   0.12328664
470.00   1.11967979   0.12487187
472.00   1.09601529   0.12647060
474.00   1.07225112   0.12808289
476.00   1.04838729   0.12970880
478.00   1.02442381   0.13134838
480.00   1.00036070   0.13300169
482.00   0.97619796   0.13466878
484.00   0.95193560   0.13634972
486.00   0.92757364   0.13804456
488.00   0.90311208   0.13975336
490.00   0.87855094   0.14147617
492.00   0.85389022   0.14321305
494.00   0.82912994   0.14496405
496.00   0.80427011   0.14672924
498.00   0.77931074   0.14850867
500.00   0.75425183   0.15030239
502.00   0.72909341   0.15211047
504.00   0.70383548   0.15393295
506.00   0.67847805   0.15576990
508.00   0.65302113   0.15762137
510.00   0.62746474   0.15948742
512.00   0.60180889   0.16136811
514.00   0.57605358   0.16326349
516.00   0.55019882   0.16517361
518.00   0.52424464   0.16709854
520.00   0.49819104   0.16903833
522.00   0.47203803   0.17099304
524.00   0.44578562   0.17296272
526.00   0.41943383   0.17494743
528.00   0.39298267   0.17694723
530.00   0.36643214   0.17896217
532.00   0.33978226   0.18099231
534.00   0.31303304   0.18303771
536.00   0.28618449   0.18509842
538.00   0.25923663   0.18717449
540.00   0.23218946   0.18926599
542.00   0.20504300   0.19137298
544.00   0.17779726   0.19349549
546.00   0.15045226   0.19563361
548.00   0.12300799   0.19778737
550.00   0.09546448   0.19995684
552.00   0.06782174   0.20214207
554.00   0.04007977   0.20434312
556.00   0.01223860   0.20656005
558.00  -0.01570177   0.20879291
560.00  -0.04374133   0.21104175
562.00  -0.07188005   0.21330664
564.00  -0.10011794   0.21558763
566.00  -0.12845498   0.21788477
568.00  -0.15689115   0.22019813
570.00  -0.18542645   0.22252775
572.00  -0.21406085   0.22487370
574.00  -0.24279436   0.22723603
576.00  -0.27162695   0.22961480
578.00  -0.30055861   0.23201006
580.00  -0.32958934   0.23442187
582.00  -0.35871911   0.23685029
584.00  -0.38794792   0.23929536
586.00  -0.41727575   0.24175716
588.00  -0.44670259   0.24423572
590.00  -0.47622843   0.24673112
592.00  -0.50585326   0.24924340
594.00  -0.53557706   0.25177262
596.00  -0.56539981   0.25431885
598.00  -0.59532151   0.25688212
600.00  -0.62534215   0.25946250
602.00  -0.65546170   0.26206005
604.00  -0.68568016   0.26467482
606.00  -0.71599752   0.26730687
608.00  -0.74641375   0.26995625
610.00  -0.77692886   0.27262303
612.00  -0.80754281   0.27530724
614.00  -0.83825561   0.27800896
616.00  -0.86906724   0.28072823
618.00  -0.89997768   0.28346512
620.00  -0.93098692   0.28621968
622.00  -0.96209495   0.28899196
624.00  -0.99330175   0.29178202
626.00  -1.02460731   0.29458991
628.00  -1.05601162   0.29741570
630.00  -1.08751466   0.30025944
632.00  -1.11911642   0.30312118
634.00  -1.15081689   0.30600098
636.00  -1.18261605   0.30889889
638.00  -1.21451389   0.31181498
640.00  -1.24651039   0.31474929
642.00  -1.27860554   0.31770189
644.00  -1.31079933   0.32067282
646.00  -1.34309174   0.32366215
648.00  -1.37548276   0.32666992
650.00  -1.40797238   0.32969620
652.00  -1.44056058   0.33274104
654.00  -1.47324734   0.33580450
656.00  -1.50603265   0.33888663
658.00  -1.53891650   0.34198749
660.00  -1.57189888   0.34510713
662.00  -1.60497977   0.34824561
664.00  -1.63815915   0.35140298
666.00  -1.67143701   0.35457931
668.00  -1.70481334   0.35777464
670.00  -1.73828812   0.36098903
672.00  -1.77186134   0.36422253
674.00  -1.80553298   0.36747521
676.00  -1.83930303   0.37074712
678.00  -1.87317147   0.37403831
680.00  -1.90713829   0.37734884
682.00  -1.94120348   0.38067876
684.00  -1.97536702   0.38402813
686.00  -2.00962889   0.38739700
688.00  -2.04398908   0.39078544
690.00  -2.07844758   0.39419349
692.00  -2.11300436   0.39762121
694.00  -2.14765943   0.40106866
696.00  -2.18241275   0.40453589
698.00  -2.21726432   0.40802296
700.00  -2.25221412   0.41152992
702.00  -2.28726213   0.41505683
704.00  -2.32240834   0.41860374
706.00  -2.35765274   0.42217071
708.00  -2.39299531   0.42575779
710.00  -2.42843603   0.42936504
712.00  -2.46397489   0.43299251
714.00  -2.49961187   0.43664026
716.00  -2.53534697   0.44030835
718.00  -2.57118015   0.44399683
720.00  -2.60711141   0.44770575
722.00  -2.64314074   0.45143517
724.00  -2.67926811   0.45518515
726.00  -2.71549351   0.45895574
728.00  -2.75181693   0.46274699
730.00  -2.78823834   0.46655896
732.00  -2.82475774   0.47039171
734.00  -2.86137510   0.47424529
736.00  -2.89809042   0.47811975
738.00  -2.93490368   0.48201516
740.00  -2.97181485   0.48593156
742.00  -3.00882393   0.48986901
744.00  -3.04593089   0.49382756
746.00  -3.08313573   0.49780728
748.00  -3.12043843   0.50180821
750.00  -3.15783896   0.50583042
752.00  -3.19533732   0.50987395
754.00  -3.23293349   0.51393886
756.00  -3.27062744   0.51802520
758.00  -3.30841918   0.52213304
760.00  -3.34630867   0.52626242
762.00  -3.38429590   0.53041340
764.00  -3.42238086   0.53458603
766.00  -3.46056353   0.53878038
768.00  -3.49884389   0.54299648
770.00  -3.53722193   0.54723441
772.00  -3.57569763   0.55149422
774.00  -3.61427098   0.55577595
776.00  -3.65294195   0.56007966
778.00  -3.69171053   0.56440541
780.00  -3.73057670   0.56875326
782.00  -3.76954045   0.57312325
784.00  -3.80860177   0.57751545
786.00  -3.84776062   0.58192990
788.00  -3.88701700   0.58636667
790.00  -3.92637089   0.59082580
792.00  -3.96582227   0.59530735
794.00  -4.00537113   0.59981138
796.00  -4.04501745   0.60433794
798.00  -4.08476120   0.60888708
800.00  -4.12460239   0.61345886
802.00  -4.16454098   0.61805334
804.00  -4.20457695   0.62267056
806.00  -4.24471031   0.62731059
808.00  -4.28494101   0.63197347
810.00  -4.32526906   0.63665927
812.00  -4.36569442   0.64136803
814.00  -4.40621709   0.64609981
816.00  -4.44683704   0.65085467
818.00  -4.48755427   0.65563266
820.00  -4.52836874   0.66043383
822.00  -4.56928045   0.66525824
824.00  -4.61028937   0.67010595
826.00  -4.65139549   0.67497700
828.00  -4.69259879   0.67987145
830.00  -4.73389925   0.68478936
832.00  -4.77529686   0.68973078
834.00  -4.81679159   0.69469576
836.00  -4.85838343   0.69968436
838.00  -4.90007237   0.70469663
840.00  -4.94185838   0.70973263
842.00  -4.98374144   0.71479241
844.00  -5.02572154   0.71987603
846.00  -5.06779866   0.72498354
848.00  -5.10997278   0.73011499
850.00  -5.15224389   0.73527044
852.00  -5.19461196   0.74044994
854.00  -5.23707697   0.74565355
856.00  -5.27963892   0.75088131
858.00  -5.32229777   0.75613330
860.00  -5.36505352   0.76140955
862.00  -5.40790614   0.76671012
864.00  -5.45085561   0.77203507
866.00  -5.49390192   0.77738445
868.00  -5.53704505   0.78275831
870.00  -5.58028498   0.78815671
872.00  -5.62362169   0.79357971
874.00  -5.66705517   0.79902735
876.00  -5.71058538   0.80449969
878.00  -5.75421232   0.80999679
880.00  -5.79793597   0.81551869
882.00  -5.84175631   0.82106546
884.00  -5.88567331   0.82663714
886.00  -5.92968697   0.83223379
888.00  -5.97379725   0.83785546
890.00  -6.01800415   0.84350221
892.00  -6.06230764   0.84917410
894.00  -6.10670771   0.85487116
896.00  -6.15120433   0.86059347
898.00  -6.19579749   0.86634107
900.00  -6.24048716   0.87211401
902.00  -6.28527333   0.87791235
904.00  -6.33015598   0.88373615
906.00  -6.37513509   0.88958545
908.00  -6.42021064   0.89546032
910.00  -6.46538261   0.90136079
912.00  -6.51065098   0.90728694
914.00  -6.55601574   0.91323881
916.00  -6.60147685   0.91921645
918.00  -6.64703431   0.92521992
920.00  -6.69268809   0.93124927
922.00  -6.73843818   0.93730456
924.00  -6.78428455   0.94338584
926.00  -6.83022719   0.94949315
928.00  -6.87626607   0.95562657
930.00  -6.92240118   0.96178613
932.00  -6.96863249   0.96797190
934.00  -7.01495999   0.97418392
936.00  -7.06138366   0.98042226
938.00  -7.10790347   0.98668695
940.00  -7.15451940   0.99297806
942.00  -7.20123145   0.99929564
944.00  -7.24803958   1.00563975
946.00  -7.29494377   1.01201043
948.00  -7.34194402   1.01840774
950.00  -7.38904029   1.02483173
952.00  -7.43623256   1.03128245
954.00  -7.48352082   1.03775997
956.00  -7.53090505   1.04426433
958.00  -7.57838522   1.05079558
960.00  -7.62596132   1.05735379
962.00  -7.67363332   1.06393899
964.00  -7.72140120   1.07055125
966.00  -7.76926495   1.07719061
968.00  -7.81722455   1.08385714
970.00  -7.86527996   1.09055088
972.00  -7.91343118   1.09727189
974.00  -7.96167818   1.10402022
976.00  -8.01002095   1.11079592
978.00  -8.05845945   1.11759905
980.00  -8.10699367   1.12442966
982.00  -8.15562359   1.13128779
984.00  -8.20434920   1.13817352
986.00  -8.25317045   1.14508688
988.00  -8.30208735   1.15202793
990.00  -8.35109986   1.15899672
992.00  -8.40020797   1.16599331
994.00  -8.44941165   1.17301775
996.00  -8.49871088   1.18007010
998.00  -8.54810565   1.18715039
1000.00  -8.59759592   1.19425870
1002.00  -8.64718169   1.20139506
1004.00  -8.69686293   1.20855954
1006.00  -8.74663961   1.21575218
1008.00  -8.79651172   1.22297304
1010.00  -8.84647923   1.23022217
1012.00  -8.89654213   1.23749963
1014.00  -8.94670039   1.24480546
1016.00  -8.99695400   1.25213972
1018.00  -9.04730292   1.25950246
1020.00  -9.09774714   1.26689374
1022.00  -9.14828663   1.27431360
1024.00  -9.19892139   1.28176210
1026.00  -9.24965137   1.28923929
1028.00  -9.30047657   1.29674523
1030.00  -9.35139696   1.30427996
1032.00  -9.40241251   1.31184354
1034.00  -9.45352322   1.31943603
1036.00  -9.50472905   1.32705746
1038.00  -9.55602998   1.33470791
1040.00  -9.60742599   1.34238741
1042.00  -9.65891707   1.35009602
1044.00  -9.71050318   1.35783380
1046.00  -9.76218431   1.36560079
1048.00  -9.81396043   1.37339704
1050.00  -9.86583152   1.38122262
1052.00  -9.91779756   1.38907757
1054.00  -9.96985853   1.39696195
1056.00 -10.02201441   1.40487580
1058.00 -10.07426517   1.41281918
1060.00 -10.12661079   1.42079214
1062.00 -10.17905125   1.42879473
1064.00 -10.23158653   1.43682701
1066.00 -10.28421660   1.44488903
1068.00 -10.33694144   1.45298083
1070.00 -10.38976103   1.46110248
1072.00 -10.44267535   1.46925402
1074.00 -10.49568438   1.47743550
1076.00 -10.54878808   1.48564699
1078.00 -10.60198645   1.49388852
1080.00 -10.65527945   1.50216015
1082.00 -10.70866707   1.51046194
1084.00 -10.76214927   1.51879393
1086.00 -10.81572605   1.52715618
1088.00 -10.86939738   1.53554874
1090.00 -10.92316322   1.54397165
1092.00 -10.97702357   1.55242498
1094.00 -11.03097840   1.56090878
1096.00 -11.08502768   1.56942309
1098.00 -11.13917139   1.57796797
1100.00 -11.19340951   1.58654346
1102.00 -11.24774202   1.59514963
1104.00 -11.30216889   1.60378653
1106.00 -11.35669010   1.61245419
1108.00 -11.41130563   1.62115268
1110.00 -11.46601545   1.62988205
1112.00 -11.52081954   1.63864235
1114.00 -11.57571788   1.64743364
1116.00 -11.63071044   1.65625595
1118.00 -11.68579720   1.66510935
1120.00 -11.74097814   1.67399388
1122.00 -11.79625324   1.68290960
1124.00 -11.85162246   1.69185656
1126.00 -11.90708579   1.70083481
1128.00 -11.96264321   1.70984440
1130.00 -12.01829469   1.71888538
1132.00 -12.07404020   1.72795781
1134.00 -12.12987972   1.73706173
1136.00 -12.18581324   1.74619720
1138.00 -12.24184072   1.75536427
1140.00 -12.29796214   1.76456298
1142.00 -12.35417748   1.77379340
1144.00 -12.41048672   1.78305557
1146.00 -12.46688982   1.79234955
1148.00 -12.52338677   1.80167537
1150.00 -12.57997755   1.81103311
1152.00 -12.63666212   1.82042280
1154.00 -12.69344047   1.82984450
1156.00 -12.75031257   1.83929825
1158.00 -12.80727840   1.84878412
1160.00 -12.86433793   1.85830215
1162.00 -12.92149114   1.86785239
1164.00 -12.97873800   1.87743490
1166.00 -13.03607849   1.88704972
1168.00 -13.09351259   1.89669690
1170.00 -13.15104028   1.90637650
1172.00 -13.20866152   1.91608857
1174.00 -13.26637629   1.92583315
1176.00 -13.32418457   1.93561031
1178.00 -13.38208634   1.94542008
1180.00 -13.44008156   1.95526253
1182.00 -13.49817023   1.96513769
1184.00 -13.55635230   1.97504563
1186.00 -13.61462776   1.98498639
1188.00 -13.67299658   1.99496003
1190.00 -13.73145874   2.00496659
1192.00 -13.79001421   2.01500613
1194.00 -13.84866297   2.02507869
1196.00 -13.90740500   2.03518433
1198.00 -13.96624026   2.04532309
1200.00 -14.02516874   2.05549504
1202.00 -14.08419040   2.06570021
1204.00 -14.14330523   2.07593866
1206.00 -14.20251320   2.08621044
1208.00 -14.26181428   2.09651560
1210.00 -14.32120845   2.10685419
1212.00 -14.38069569   2.11722626
1214.00 -14.44027597   2.12763187
1216.00 -14.49994926   2.13807105
1218.00 -14.55971553   2.14854387
1220.00 -14.61957478   2.15905037
1222.00 -14.67952696   2.16959061
1224.00 -14.73957205   2.18016463
1226.00 -14.79971003   2.19077248
1228.00 -14.85994088   2.20141421
1230.00 -14.92026456   2.21208988
1232.00 -14.98068106   2.22279954
1234.00 -15.04119034   2.23354323
1236.00 -15.10179238   2.24432100
1238.00 -15.16248716   2.25513291
1240.00 -15.22327465   2.26597900
1242.00 -15.28415483   2.27685933
1244.00 -15.34512766   2.28777395
1246.00 -15.40619313   2.29872290
1248.00 -15.46735120   2.30970624
1250.00 -15.52860186   2.32072401
1252.00 -15.58994507   2.33177627
1254.00 -15.65138082   2.34286306
1256.00 -15.71290907   2.35398444
1258.00 -15.77452979   2.36514046
1260.00 -15.83624298   2.37633116
1262.00 -15.89804858   2.38755659
1264.00 -15.95994660   2.39881681
1266.00 -16.02193698   2.41011187
1268.00 -16.08401972   2.42144181
1270.00 -16.14619477   2.43280669
1272.00 -16.20846213   2.44420655
1274.00 -16.27082176   2.45564144
1276.00 -16.33327363   2.46711142
1278.00 -16.39581772   2.47861653
1280.00 -16.45845400   2.49015682
1282.00 -16.52118245   2.50173235
1284.00 -16.58400304   2.51334316
1286.00 -16.64691575   2.52498930
1288.00 -16.70992054   2.53667083
1290.00 -16.77301739   2.54838778
1292.00 -16.83620628   2.56014022
1294.00 -16.89948717   2.57192818
1296.00 -16.96286005   2.58375173
1298.00 -17.02632488   2.59561090
