wavelength(nm)         real         imag
100.00   3.81991956   0.00076524
102.00   3.81668462   0.00081208
104.00   3.81338564   0.00086079
106.00   3.81002263   0.00091140
108.00   3.80659559   0.00096397
110.00   3.80310452   0.00101852
112.00   3.79954943   0.00107508
114.00   3.79593031   0.00113371
116.00   3.79224716   0.00119442
118.00   3.78849999   0.00125727
120.00   3.78468880   0.00132228
122.00   3.78081359   0.00138950
124.00   3.77687436   0.00145896
126.00   3.77287111   0.00153069
128.00   3.76880385   0.00160473
130.00   3.76467258   0.00168113
132.00   3.76047730   0.00175991
134.00   3.75621800   0.00184112
136.00   3.75189470   0.00192478
138.00   3.74750740   0.00201094
140.00   3.74305609   0.00209964
142.00   3.73854078   0.00219090
144.00   3.73396147   0.00228477
146.00   3.72931817   0.00238129
148.00   3.72461086   0.00248048
150.00   3.71983957   0.00258239
152.00   3.71500428   0.00268706
154.00   3.71010501   0.00279451
156.00   3.70514174   0.00290479
158.00   3.70011450   0.00301794
160.00   3.69502327   0.00313398
162.00   3.68986806   0.00325296
164.00   3.68464887   0.00337492
166.00   3.67936570   0.00349988
168.00   3.67401856   0.00362789
170.00   3.66860746   0.00375898
172.00   3.66313238   0.00389319
174.00   3.65759333   0.00403056
176.00   3.65199032   0.00417113
178.00   3.64632335   0.00431492
180.00   3.64059243   0.00446197
182.00   3.63479754   0.00461234
184.00   3.62893870   0.00476604
186.00   3.62301591   0.00492311
188.00   3.61702917   0.00508360
190.00   3.61097848   0.00524754
192.00   3.60486385   0.00541496
194.00   3.59868528   0.00558591
196.00   3.59244277   0.00576042
198.00   3.58613633   0.00593852
200.00   3.57976595   0.00612025
202.00   3.57333165   0.00630566
204.00   3.56683341   0.00649477
206.00   3.56027125   0.00668762
208.00   3.55364517   0.00688425
210.00   3.54695518   0.00708469
212.00   3.54020126   0.00728899
214.00   3.53338344   0.00749718
216.00   3.52650170   0.00770929
218.00   3.51955606   0.00792536
220.00   3.51254651   0.00814543
222.00   3.50547307   0.00836954
224.00   3.49833572   0.00859772
226.00   3.49113448   0.00883000
228.00   3.48386935   0.00906643
230.00   3.47654034   0.00930705
232.00   3.46914743   0.00955187
234.00   3.46169065   0.00980096
236.00   3.45416999   0.01005433
238.00   3.44658545   0.01031203
240.00   3.43893704   0.01057410
242.00   3.43122477   0.01084057
244.00   3.42344863   0.01111147
246.00   3.41560862   0.01138685
248.00   3.40770476   0.01166673
250.00   3.39973705   0.01195117
252.00   3.39170548   0.01224018
254.00   3.38361007   0.01253382
256.00   3.37545081   0.01283211
258.00   3.36722771   0.01313510
260.00   3.35894077   0.01344281
262.00   3.35059000   0.01375529
264.00   3.34217541   0.01407257
266.00   3.33369698   0.01439469
268.00   3.32515473   0.01472169
270.00   3.31654867   0.01505360
272.00   3.30787879   0.01539045
274.00   3.29914510   0.01573230
276.00   3.29034760   0.01607916
278.00   3.28148630   0.01643108
280.00   3.27256120   0.01678809
282.00   3.26357230   0.01715024
284.00   3.25451962   0.01751755
286.00   3.24540314   0.01789006
288.00   3.23622288   0.01826782
290.00   3.22697884   0.01865085
292.00   3.21767103   0.01903920
294.00   3.20829944   0.01943289
296.00   3.19886409   0.01983197
298.00   3.18936497   0.02023647
300.00   3.17980210   0.02064643
302.00   3.17017547   0.02106189
304.00   3.16048509   0.02148288
306.00   3.15073096   0.02190943
308.00   3.14091309   0.02234159
310.00   3.13103148   0.02277940
312.00   3.12108614   0.02322287
314.00   3.11107707   0.02367207
316.00   3.10100428   0.02412701
318.00   3.09086776   0.02458774
320.00   3.08066753   0.02505429
322.00   3.07040359   0.02552670
324.00   3.06007594   0.02600501
326.00   3.04968458   0.02648925
328.00   3.03922953   0.02697945
330.00   3.02871079   0.02747566
332.00   3.01812836   0.02797792
334.00   3.00748224   0.02848625
336.00   2.99677244   0.02900069
338.00   2.98599897   0.02952129
340.00   2.97516183   0.03004807
342.00   2.96426102   0.03058108
344.00   2.95329655   0.03112034
346.00   2.94226843   0.03166590
348.00   2.93117665   0.03221779
350.00   2.92002123   0.03277605
352.00   2.90880217   0.03334072
354.00   2.89751947   0.03391182
356.00   2.88617314   0.03448941
358.00   2.87476318   0.03507350
360.00   2.86328960   0.03566415
362.00   2.85175240   0.03626138
364.00   2.84015160   0.03686524
366.00   2.82848718   0.03747575
368.00   2.81675917   0.03809296
370.00   2.80496755   0.03871691
372.00   2.79311235   0.03934762
374.00   2.78119356   0.03998513
376.00   2.76921119   0.04062948
378.00   2.75716525   0.04128071
380.00   2.74505573   0.04193885
382.00   2.73288265   0.04260395
384.00   2.72064601   0.04327602
386.00   2.70834582   0.04395512
388.00   2.69598208   0.04464128
390.00   2.68355479   0.04533453
392.00   2.67106396   0.04603491
394.00   2.65850961   0.04674246
396.00   2.64589172   0.04745720
398.00   2.63321032   0.04817919
400.00   2.62046539   0.04890846
402.00   2.60765696   0.04964503
404.00   2.59478502   0.05038895
406.00   2.58184958   0.05114026
408.00   2.56885065   0.05189899
410.00   2.55578823   0.05266517
412.00   2.54266233   0.05343884
414.00   2.52947295   0.05422005
416.00   2.51622010   0.05500881
418.00   2.50290379   0.05580518
420.00   2.48952402   0.05660919
422.00   2.47608079   0.05742087
424.00   2.46257411   0.05824025
426.00   2.44900400   0.05906739
428.00   2.43537045   0.05990230
430.00   2.42167346   0.06074503
432.00   2.40791306   0.06159562
434.00   2.39408923   0.06245409
436.00   2.38020200   0.06332049
438.00   2.36625136   0.06419486
440.00   2.35223732   0.06507722
442.00   2.33815988   0.06596761
444.00   2.32401906   0.06686608
446.00   2.30981486   0.06777265
448.00   2.29554728   0.06868737
450.00   2.28121633   0.06961026
452.00   2.26682202   0.07054137
454.00   2.25236435   0.07148073
456.00   2.23784334   0.07242837
458.00   2.22325898   0.07338434
460.00   2.20861128   0.07434867
462.00   2.19390025   0.07532139
464.00   2.17912590   0.07630254
466.00   2.16428823   0.07729216
468.00   2.14938724   0.07829029
470.00   2.13442296   0.07929695
472.00   2.11939537   0.08031218
474.00   2.10430449   0.08133603
476.00   2.08915033   0.08236852
478.00   2.07393288   0.08340970
480.00   2.05865217   0.08445960
482.00   2.04330819   0.08551825
484.00   2.02790095   0.08658569
486.00   2.01243045   0.08766196
488.00   1.99689672   0.08874709
490.00   1.98129974   0.08984112
492.00   1.96563953   0.09094408
494.00   1.94991610   0.09205602
496.00   1.93412944   0.09317696
498.00   1.91827958   0.09430694
500.00   1.90236651   0.09544600
502.00   1.88639025   0.09659418
504.00   1.87035079   0.09775151
506.00   1.85424815   0.09891802
508.00   1.83808233   0.10009375
510.00   1.82185335   0.10127874
512.00   1.80556120   0.10247303
514.00   1.78920589   0.10367664
516.00   1.77278744   0.10488962
518.00   1.75630585   0.10611200
520.00   1.73976112   0.10734382
522.00   1.72315327   0.10858511
524.00   1.70648229   0.10983591
526.00   1.68974820   0.11109626
528.00   1.67295101   0.11236618
530.00   1.65609072   0.11364572
532.00   1.63916734   0.11493492
534.00   1.62218088   0.11623380
536.00   1.60513134   0.11754240
538.00   1.58801873   0.11886076
540.00   1.57084307   0.12018892
542.00   1.55360435   0.12152691
544.00   1.53630258   0.12287477
546.00   1.51893777   0.12423253
548.00   1.50150994   0.12560022
550.00   1.48401908   0.12697790
552.00   1.46646520   0.12836558
554.00   1.44884832   0.12976330
556.00   1.43116844   0.13117111
558.00   1.41342556   0.13258903
560.00   1.39561970   0.13401711
562.00   1.37775086   0.13545537
564.00   1.35981905   0.13690386
566.00   1.34182428   0.13836261
568.00   1.32376656   0.13983165
570.00   1.30564589   0.14131102
572.00   1.28746229   0.14280076
574.00   1.26921575   0.14430091
576.00   1.25090629   0.14581149
578.00   1.23253392   0.14733254
580.00   1.21409863   0.14886410
582.00   1.19560046   0.15040621
584.00   1.17703939   0.15195890
586.00   1.15841544   0.15352220
588.00   1.13972861   0.15509616
590.00   1.12097892   0.15668080
592.00   1.10216637   0.15827617
594.00   1.08329097   0.15988229
596.00   1.06435273   0.16149921
598.00   1.04535166   0.16312696
600.00   1.02628776   0.16476557
602.00   1.00716104   0.16641508
604.00   0.98797152   0.16807553
606.00   0.96871920   0.16974695
608.00   0.94940408   0.17142938
610.00   0.93002618   0.17312285
612.00   0.91058551   0.17482740
614.00   0.89108206   0.17654306
616.00   0.87151586   0.17826987
618.00   0.85188692   0.18000787
620.00   0.83219523   0.18175708
622.00   0.81244080   0.18351755
624.00   0.79262366   0.18528932
626.00   0.77274379   0.18707241
628.00   0.75280123   0.18886686
630.00   0.73279596   0.19067270
632.00   0.71272800   0.19248999
634.00   0.69259737   0.19431873
636.00   0.67240406   0.19615899
638.00   0.65214808   0.19801078
640.00   0.63182946   0.19987415
642.00   0.61144818   0.20174912
644.00   0.59100427   0.20363574
646.00   0.57049774   0.20553404
648.00   0.54992858   0.20744406
650.00   0.52929681   0.20936583
652.00   0.50860244   0.21129938
654.00   0.48784548   0.21324476
656.00   0.46702594   0.21520200
658.00   0.44614382   0.21717112
660.00   0.42519914   0.21915218
662.00   0.40419190   0.22114520
664.00   0.38312211   0.22315021
666.00   0.36198979   0.22516726
668.00   0.34079493   0.22719638
670.00   0.31953756   0.22923760
672.00   0.29821768   0.23129097
674.00   0.27683529   0.23335650
676.00   0.25539041   0.23543425
678.00   0.23388305   0.23752424
680.00   0.21231322   0.23962652
682.00   0.19068092   0.24174110
684.00   0.16898617   0.24386804
686.00   0.14722898   0.24600737
688.00   0.12540934   0.24815912
690.00   0.10352729   0.25032332
692.00   0.08158281   0.25250001
694.00   0.05957593   0.25468923
696.00   0.03750664   0.25689102
698.00   0.01537498   0.25910540
700.00  -0.00681907   0.26133241
702.00  -0.02907549   0.26357209
704.00  -0.05139427   0.26582447
706.00  -0.07377540   0.26808959
708.00  -0.09621886   0.27036748
710.00  -0.11872466   0.27265818
712.00  -0.14129278   0.27496172
714.00  -0.16392321   0.27727814
716.00  -0.18661594   0.27960748
718.00  -0.20937096   0.28194976
720.00  -0.23218827   0.28430502
722.00  -0.25506784   0.28667330
724.00  -0.27800968   0.28905464
726.00  -0.30101377   0.29144906
728.00  -0.32408010   0.29385661
730.00  -0.34720867   0.29627731
732.00  -0.37039945   0.29871121
734.00  -0.39365245   0.30115833
736.00  -0.41696765   0.30361872
738.00  -0.44034504   0.30609240
740.00  -0.46378462   0.30857942
742.00  -0.48728636   0.31107981
744.00  -0.51085027   0.31359360
746.00  -0.53447633   0.31612082
748.00  -0.55816453   0.31866152
750.00  -0.58191486   0.32121573
752.00  -0.60572731   0.32378347
754.00  -0.62960187   0.32636480
756.00  -0.65353854   0.32895974
758.00  -0.67753729   0.33156832
760.00  -0.70159812   0.33419059
762.00  -0.72572102   0.33682657
764.00  -0.74990598   0.33947630
766.00  -0.77415299   0.34213982
768.00  -0.79846203   0.34481716
770.00  -0.82283311   0.34750836
772.00  -0.84726620   0.35021345
774.00  -0.87176129   0.35293246
776.00  -0.89631838   0.35566543
778.00  -0.92093746   0.35841240
780.00  -0.94561851   0.36117340
782.00  -0.97036153   0.36394846
784.00  -0.99516649   0.36673762
786.00  -1.02003341   0.36954092
788.00  -1.04496225   0.37235838
790.00  -1.06995301   0.37519005
792.00  -1.09500569   0.37803595
794.00  -1.12012026   0.38089613
796.00  -1.14529672   0.38377061
798.00  -1.17053506   0.38665944
800.00  -1.19583527   0.38956264
802.00  -1.22119733   0.39248025
804.00  -1.24662124   0.39541231
806.00  -1.27210698   0.39835885
808.00  -1.29765454   0.40131991
810.00  -1.32326392   0.40429551
812.00  -1.34893510   0.40728570
814.00  -1.37466807   0.41029051
816.00  -1.40046282   0.41330997
818.00  -1.42631933   0.41634412
820.00  -1.45223761   0.41939299
822.00  -1.47821762   0.42245662
824.00  -1.50425938   0.42553504
826.00  -1.53036285   0.42862829
828.00  -1.55652804   0.43173640
830.00  -1.58275493   0.43485940
832.00  -1.60904351   0.43799733
834.00  -1.63539376   0.44115022
836.00  -1.66180569   0.44431812
838.00  -1.68827927   0.44750104
840.00  -1.71481449   0.45069904
842.00  -1.74141134   0.45391213
844.00  -1.76806982   0.45714037
846.00  -1.79478991   0.46038377
848.00  -1.82157159   0.46364238
850.00  -1.84841486   0.46691622
852.00  -1.87531971   0.47020534
854.00  -1.90228612   0.47350977
856.00  -1.92931409   0.47682954
858.00  -1.95640359   0.48016469
860.00  -1.98355462   0.48351525
862.00  -2.01076717   0.48688125
864.00  -2.03804123   0.49026274
866.00  -2.06537678   0.49365973
868.00  -2.09277381   0.49707228
870.00  -2.12023231   0.50050041
872.00  -2.14775227   0.50394415
874.00  -2.17533368   0.50740355
876.00  -2.20297652   0.51087863
878.00  -2.23068078   0.51436943
880.00  -2.25844646   0.51787599
882.00  -2.28627353   0.52139833
884.00  -2.31416200   0.52493650
886.00  -2.34211183   0.52849052
888.00  -2.37012303   0.53206043
890.00  -2.39819559   0.53564627
892.00  -2.42632948   0.53924806
894.00  -2.45452470   0.54286585
896.00  -2.48278123   0.54649967
898.00  -2.51109907   0.55014955
900.00  -2.53947819   0.55381552
902.00  -2.56791860   0.55749762
904.00  -2.59642027   0.56119588
906.00  -2.62498320   0.56491035
908.00  -2.65360737   0.56864104
910.00  -2.68229277   0.57238800
912.00  -2.71103938   0.57615126
914.00  -2.73984721   0.57993085
916.00  -2.76871622   0.58372682
918.00  -2.79764641   0.58753918
920.00  -2.82663778   0.59136798
922.00  -2.85569030   0.59521324
924.00  -2.88480396   0.59907502
926.00  -2.91397875   0.60295333
928.00  -2.94321466   0.60684821
930.00  -2.97251168   0.61075969
932.00  -3.00186979   0.61468782
934.00  -3.03128898   0.61863262
936.00  -3.06076923   0.62259413
938.00  -3.09031055   0.62657237
940.00  -3.11991290   0.63056740
942.00  -3.14957629   0.63457923
944.00  -3.17930069   0.63860790
946.00  -3.20908610   0.64265345
948.00  -3.23893250   0.64671591
950.00  -3.26883988   0.65079532
952.00  -3.29880823   0.65489170
954.00  -3.32883753   0.65900509
956.00  -3.35892777   0.66313554
958.00  -3.38907893   0.66728305
960.00  -3.41929102   0.67144769
962.00  -3.44956400   0.67562947
964.00  -3.47989788   0.67982843
966.00  -3.51029263   0.68404460
968.00  -3.54074824   0.68827802
970.00  -3.57126470   0.69252872
972.00  -3.60184200   0.69679674
974.00  -3.63248013   0.70108211
976.00  -3.66317906   0.70538486
978.00  -3.69393880   0.70970503
980.00  -3.72475932   0.71404264
982.00  -3.75564061   0.71839774
984.00  -3.78658265   0.72277036
986.00  -3.81758545   0.72716053
988.00  -3.84864897   0.73156828
990.00  -3.87977322   0.73599365
992.00  -3.91095817   0.74043667
994.00  -3.94220381   0.74489737
996.00  -3.97351013   0.74937580
998.00  -4.00487712   0.75387197
1000.00  -4.03630475   0.75838594
1002.00  -4.06779303   0.76291772
1004.00  -4.09934193   0.76746735
1006.00  -4.13095145   0.77203487
1008.00  -4.16262156   0.77662031
1010.00  -4.19435225   0.78122370
1012.00  -4.22614352   0.78584507
1014.00  -4.25799535   0.79048447
1016.00  -4.28990772   0.79514192
1018.00  -4.32188062   0.79981746
1020.00  -4.35391403   0.80451111
1022.00  -4.38600795   0.80922292
1024.00  -4.41816236   0.81395292
1026.00  -4.45037725   0.81870113
1028.00  -4.48265260   0.82346760
1030.00  -4.51498839   0.82825236
1032.00  -4.54738463   0.83305543
1034.00  -4.57984128   0.83787686
1036.00  -4.61235834   0.84271667
1038.00  -4.64493579   0.84757491
1040.00  -4.67757362   0.85245159
1042.00  -4.71027182   0.85734677
1044.00  -4.74303037   0.86226046
1046.00  -4.77584925   0.86719270
1048.00  -4.80872846   0.87214354
1050.00  -4.84166798   0.87711298
1052.00  -4.87466780   0.88210109
1054.00  -4.90772789   0.88710787
1056.00  -4.94084826   0.89213338
1058.00  -4.97402887   0.89717764
1060.00  -5.00726973   0.90224068
1062.00  -5.04057081   0.90732254
1064.00  -5.07393211   0.91242325
1066.00  -5.10735360   0.91754284
1068.00  -5.14083527   0.92268135
1070.00  -5.17437711   0.92783881
1072.00  -5.20797911   0.93301526
1074.00  -5.24164124   0.93821072
1076.00  -5.27536350   0.94342522
1078.00  -5.30914588   0.94865882
1080.00  -5.34298835   0.95391152
1082.00  -5.37689090   0.95918338
1084.00  -5.41085352   0.96447441
1086.00  -5.44487619   0.96978466
1088.00  -5.47895891   0.97511416
1090.00  -5.51310164   0.98046293
1092.00  -5.54730439   0.98583102
1094.00  -5.58156714   0.99121846
1096.00  -5.61588986   0.99662527
1098.00  -5.65027256   1.00205149
1100.00  -5.68471520   1.00749716
1102.00  -5.71921778   1.01296231
1104.00  -5.75378029   1.01844696
1106.00  -5.78840270   1.02395116
1108.00  -5.82308501   1.02947493
1110.00  -5.85782720   1.03501832
1112.00  -5.89262925   1.04058134
1114.00  -5.92749115   1.04616404
1116.00  -5.96241289   1.05176644
1118.00  -5.99739444   1.05738858
1120.00  -6.03243580   1.06303049
1122.00  -6.06753695   1.06869221
1124.00  -6.10269788   1.07437377
1126.00  -6.13791856   1.08007520
1128.00  -6.17319899   1.08579652
1130.00  -6.20853916   1.09153779
1132.00  -6.24393904   1.09729902
1134.00  -6.27939861   1.10308025
1136.00  -6.31491788   1.10888152
1138.00  -6.35049681   1.11470285
1140.00  -6.38613541   1.12054428
1142.00  -6.42183364   1.12640584
1144.00  -6.45759149   1.13228756
1146.00  -6.49340896   1.13818948
1148.00  -6.52928602   1.14411163
1150.00  -6.56522267   1.15005404
1152.00  -6.60121887   1.15601674
1154.00  -6.63727463   1.16199977
1156.00  -6.67338992   1.16800316
1158.00  -6.70956473   1.17402693
1160.00  -6.74579905   1.18007113
1162.00  -6.78209285   1.18613579
1164.00  -6.81844613   1.19222093
1166.00  -6.85485886   1.19832660
1168.00  -6.89133104   1.20445282
1170.00  -6.92786264   1.21059962
1172.00  -6.96445365   1.21676704
1174.00  -7.00110406   1.22295511
1176.00  -7.03781386   1.22916386
1178.00  -7.07458301   1.23539333
1180.00  -7.11141152   1.24164354
1182.00  -7.14829936   1.24791454
1184.00  -7.18524652   1.25420634
1186.00  -7.22225298   1.26051899
1188.00  -7.25931873   1.26685251
1190.00  -7.29644375   1.27320694
1192.00  -7.33362803   1.27958231
1194.00  -7.37087155   1.28597866
1196.00  -7.40817429   1.29239601
1198.00  -7.44553624   1.29883439
1200.00  -7.48295739   1.30529384
1202.00  -7.52043771   1.31177440
1204.00  -7.55797719   1.31827609
1206.00  -7.59557582   1.32479894
1208.00  -7.63323358   1.33134299
1210.00  -7.67095046   1.33790827
1212.00  -7.70872643   1.34449481
1214.00  -7.74656148   1.35110265
1216.00  -7.78445560   1.35773180
1218.00  -7.82240877   1.36438232
1220.00  -7.86042098   1.37105423
1222.00  -7.89849221   1.37774756
1224.00  -7.93662243   1.38446234
1226.00  -7.97481165   1.39119861
1228.00  -8.01305983   1.39795639
1230.00  -8.05136697   1.40473572
1232.00  -8.08973304   1.41153664
1234.00  -8.12815804   1.41835917
1236.00  -8.16664195   1.42520334
1238.00  -8.20518474   1.43206919
1240.00  -8.24378641   1.43895674
1242.00  -8.28244693   1.44586604
1244.00  -8.32116630   1.45279711
1246.00  -8.35994449   1.45974999
1248.00  -8.39878149   1.46672470
1250.00  -8.43767728   1.47372127
1252.00  -8.47663185   1.48073975
1254.00  -8.51564517   1.48778016
1256.00  -8.55471724   1.49484253
1258.00  -8.59384804   1.50192689
1260.00  -8.63303754   1.50903329
1262.00  -8.67228574   1.51616174
1264.00  -8.71159262   1.52331227
1266.00  -8.75095816   1.53048493
1268.00  -8.79038234   1.53767975
1270.00  -8.82986515   1.54489674
1272.00  -8.86940658   1.55213596
1274.00  -8.90900659   1.55939742
1276.00  -8.94866519   1.56668116
1278.00  -8.98838234   1.57398721
1280.00  -9.02815804   1.58131560
1282.00  -9.06799227   1.58866637
1284.00  -9.10788501   1.59603954
1286.00  -9.14783625   1.60343515
1288.00  -9.18784596   1.61085323
1290.00  -9.22791413   1.61829380
1292.00  -9.26804075   1.62575691
1294.00  -9.30822580   1.63324258
1296.00  -9.34846925   1.64075085
1298.00  -9.38877110   1.64828174
