wavelength(nm)         real         imag
100.00   3.78097514   0.00113739
102.00   3.77616699   0.00120700
104.00   3.77126367   0.00127940
106.00   3.76626517   0.00135464
108.00   3.76117151   0.00143276
110.00   3.75598268   0.00151384
112.00   3.75069868   0.00159791
114.00   3.74531952   0.00168505
116.00   3.73984520   0.00177529
118.00   3.73427572   0.00186870
120.00   3.72861108   0.00196533
122.00   3.72285129   0.00206524
124.00   3.71699635   0.00216847
126.00   3.71104627   0.00227509
128.00   3.70500103   0.00238514
130.00   3.69886065   0.00249869
132.00   3.69262514   0.00261578
134.00   3.68629448   0.00273648
136.00   3.67986869   0.00286083
138.00   3.67334777   0.00298890
140.00   3.66673172   0.00312073
142.00   3.66002054   0.00325637
144.00   3.65321424   0.00339590
146.00   3.64631281   0.00353935
148.00   3.63931628   0.00368678
150.00   3.63222462   0.00383826
152.00   3.62503786   0.00399382
154.00   3.61775598   0.00415353
156.00   3.61037901   0.00431744
158.00   3.60290693   0.00448561
160.00   3.59533975   0.00465809
162.00   3.58767747   0.00483493
164.00   3.57992011   0.00501619
166.00   3.57206766   0.00520193
168.00   3.56412012   0.00539219
170.00   3.55607750   0.00558704
172.00   3.54793980   0.00578652
174.00   3.53970703   0.00599069
176.00   3.53137919   0.00619961
178.00   3.52295628   0.00641333
180.00   3.51443830   0.00663191
182.00   3.50582527   0.00685539
184.00   3.49711718   0.00708384
186.00   3.48831404   0.00731730
188.00   3.47941585   0.00755584
190.00   3.47042262   0.00779950
192.00   3.46133435   0.00804835
194.00   3.45215104   0.00830243
196.00   3.44287269   0.00856180
198.00   3.43349932   0.00882652
200.00   3.42403093   0.00909663
202.00   3.41446751   0.00937220
204.00   3.40480908   0.00965328
206.00   3.39505564   0.00993992
208.00   3.38520719   0.01023217
210.00   3.37526374   0.01053010
212.00   3.36522528   0.01083375
214.00   3.35509184   0.01114318
216.00   3.34486340   0.01145844
218.00   3.33453998   0.01177959
220.00   3.32412158   0.01210669
222.00   3.31360820   0.01243978
224.00   3.30299985   0.01277893
226.00   3.29229653   0.01312418
228.00   3.28149825   0.01347559
230.00   3.27060502   0.01383321
232.00   3.25961683   0.01419711
234.00   3.24853369   0.01456732
236.00   3.23735560   0.01494392
238.00   3.22608258   0.01532694
240.00   3.21471463   0.01571646
242.00   3.20325175   0.01611251
244.00   3.19169394   0.01651516
246.00   3.18004122   0.01692445
248.00   3.16829358   0.01734045
250.00   3.15645104   0.01776321
252.00   3.14451359   0.01819278
254.00   3.13248124   0.01862922
256.00   3.12035401   0.01907258
258.00   3.10813188   0.01952291
260.00   3.09581487   0.01998027
262.00   3.08340299   0.02044471
264.00   3.07089623   0.02091629
266.00   3.05829461   0.02139507
268.00   3.04559813   0.02188109
270.00   3.03280680   0.02237441
272.00   3.01992062   0.02287508
274.00   3.00693959   0.02338317
276.00   2.99386372   0.02389871
278.00   2.98069303   0.02442178
280.00   2.96742751   0.02495241
282.00   2.95406716   0.02549068
284.00   2.94061201   0.02603662
286.00   2.92706204   0.02659029
288.00   2.91341727   0.02715176
290.00   2.89967771   0.02772106
292.00   2.88584335   0.02829827
294.00   2.87191421   0.02888342
296.00   2.85789030   0.02947658
298.00   2.84377160   0.03007780
300.00   2.82955815   0.03068713
302.00   2.81524993   0.03130463
304.00   2.80084696   0.03193035
306.00   2.78634924   0.03256435
308.00   2.77175678   0.03320667
310.00   2.75706959   0.03385739
312.00   2.74228767   0.03451653
314.00   2.72741102   0.03518418
316.00   2.71243966   0.03586036
318.00   2.69737360   0.03654515
320.00   2.68221283   0.03723860
322.00   2.66695736   0.03794075
324.00   2.65160721   0.03865166
326.00   2.63616237   0.03937140
328.00   2.62062286   0.04010000
330.00   2.60498868   0.04083753
332.00   2.58925983   0.04158403
334.00   2.57343634   0.04233958
336.00   2.55751819   0.04310420
338.00   2.54150540   0.04387797
340.00   2.52539798   0.04466094
342.00   2.50919594   0.04545315
344.00   2.49289927   0.04625467
346.00   2.47650799   0.04706554
348.00   2.46002210   0.04788583
350.00   2.44344162   0.04871558
352.00   2.42676654   0.04955485
354.00   2.40999688   0.05040369
356.00   2.39313264   0.05126217
358.00   2.37617384   0.05213032
360.00   2.35912047   0.05300821
362.00   2.34197255   0.05389589
364.00   2.32473008   0.05479341
366.00   2.30739307   0.05570082
368.00   2.28996153   0.05661819
370.00   2.27243547   0.05754557
372.00   2.25481489   0.05848300
374.00   2.23709980   0.05943055
376.00   2.21929021   0.06038826
378.00   2.20138612   0.06135619
380.00   2.18338755   0.06233440
382.00   2.16529451   0.06332294
384.00   2.14710699   0.06432186
386.00   2.12882501   0.06533121
388.00   2.11044858   0.06635106
390.00   2.09197770   0.06738145
392.00   2.07341238   0.06842243
394.00   2.05475264   0.06947407
396.00   2.03599847   0.07053642
398.00   2.01714989   0.07160952
400.00   1.99820690   0.07269344
402.00   1.97916952   0.07378822
404.00   1.96003775   0.07489392
406.00   1.94081160   0.07601060
408.00   1.92149108   0.07713831
410.00   1.90207619   0.07827710
412.00   1.88256695   0.07942702
414.00   1.86296336   0.08058814
416.00   1.84326544   0.08176049
418.00   1.82347318   0.08294415
420.00   1.80358661   0.08413916
422.00   1.78360572   0.08534557
424.00   1.76353053   0.08656343
426.00   1.74336105   0.08779282
428.00   1.72309728   0.08903376
430.00   1.70273923   0.09028633
432.00   1.68228691   0.09155057
434.00   1.66174034   0.09282653
436.00   1.64109952   0.09411428
438.00   1.62036445   0.09541386
440.00   1.59953515   0.09672533
442.00   1.57861163   0.09804874
444.00   1.55759390   0.09938414
446.00   1.53648196   0.10073160
448.00   1.51527583   0.10209115
450.00   1.49397551   0.10346286
452.00   1.47258101   0.10484678
454.00   1.45109234   0.10624297
456.00   1.42950952   0.10765147
458.00   1.40783255   0.10907234
460.00   1.38606144   0.11050564
462.00   1.36419620   0.11195141
464.00   1.34223684   0.11340971
466.00   1.32018337   0.11488060
468.00   1.29803579   0.11636412
470.00   1.27579413   0.11786034
472.00   1.25345838   0.11936930
474.00   1.23102856   0.12089106
476.00   1.20850468   0.12242568
478.00   1.18588675   0.12397320
480.00   1.16317477   0.12553367
482.00   1.14036876   0.12710716
484.00   1.11746873   0.12869372
486.00   1.09447469   0.13029339
488.00   1.07138664   0.13190624
490.00   1.04820460   0.13353231
492.00   1.02492858   0.13517167
494.00   1.00155858   0.13682436
496.00   0.97809462   0.13849043
498.00   0.95453671   0.14016994
500.00   0.93088486   0.14186295
502.00   0.90713908   0.14356950
504.00   0.88329937   0.14528965
506.00   0.85936576   0.14702346
508.00   0.83533824   0.14877097
510.00   0.81121683   0.15053224
512.00   0.78700155   0.15230733
514.00   0.76269239   0.15409628
516.00   0.73828938   0.15589915
518.00   0.71379252   0.15771600
520.00   0.68920182   0.15954687
522.00   0.66451730   0.16139182
524.00   0.63973896   0.16325090
526.00   0.61486681   0.16512417
528.00   0.58990087   0.16701168
530.00   0.56484115   0.16891349
532.00   0.53968766   0.17082964
534.00   0.51444040   0.17276018
536.00   0.48909939   0.17470518
538.00   0.46366465   0.17666469
540.00   0.43813617   0.17863875
542.00   0.41251398   0.18062743
544.00   0.38679808   0.18263077
546.00   0.36098849   0.18464883
548.00   0.33508521   0.18668166
550.00   0.30908826   0.18872931
552.00   0.28299765   0.19079184
554.00   0.25681339   0.19286930
556.00   0.23053550   0.19496175
558.00   0.20416397   0.19706923
560.00   0.17769883   0.19919181
562.00   0.15114009   0.20132952
564.00   0.12448775   0.20348243
566.00   0.09774183   0.20565059
568.00   0.07090234   0.20783406
570.00   0.04396930   0.21003287
572.00   0.01694271   0.21224710
574.00  -0.01017742   0.21447678
576.00  -0.03739106   0.21672198
578.00  -0.06469822   0.21898275
580.00  -0.09209888   0.22125914
582.00  -0.11959302   0.22355120
584.00  -0.14718064   0.22585898
586.00  -0.17486172   0.22818255
588.00  -0.20263625   0.23052194
590.00  -0.23050423   0.23287722
592.00  -0.25846562   0.23524844
594.00  -0.28652044   0.23763565
596.00  -0.31466865   0.24003890
598.00  -0.34291026   0.24245825
600.00  -0.37124524   0.24489374
602.00  -0.39967359   0.24734544
604.00  -0.42819529   0.24981339
606.00  -0.45681033   0.25229765
608.00  -0.48551870   0.25479827
610.00  -0.51432039   0.25731531
612.00  -0.54321538   0.25984880
614.00  -0.57220366   0.26239882
616.00  -0.60128522   0.26496541
618.00  -0.63046005   0.26754862
620.00  -0.65972813   0.27014851
622.00  -0.68908945   0.27276512
624.00  -0.71854399   0.27539852
626.00  -0.74809176   0.27804876
628.00  -0.77773272   0.28071588
630.00  -0.80746687   0.28339994
632.00  -0.83729420   0.28610100
634.00  -0.86721470   0.28881910
636.00  -0.89722834   0.29155429
638.00  -0.92733512   0.29430664
640.00  -0.95753503   0.29707619
642.00  -0.98782805   0.29986300
644.00  -1.01821416   0.30266712
646.00  -1.04869336   0.30548859
648.00  -1.07926563   0.30832748
650.00  -1.10993097   0.31118384
652.00  -1.14068934   0.31405771
654.00  -1.17154075   0.31694916
656.00  -1.20248518   0.31985823
658.00  -1.23352261   0.32278497
660.00  -1.26465303   0.32572945
662.00  -1.29587643   0.32869170
664.00  -1.32719280   0.33167179
666.00  -1.35860212   0.33466976
668.00  -1.39010437   0.33768567
670.00  -1.42169955   0.34071958
672.00  -1.45338764   0.34377152
674.00  -1.48516863   0.34684157
676.00  -1.51704250   0.34992975
678.00  -1.54900924   0.35303614
680.00  -1.58106883   0.35616079
682.00  -1.61322127   0.35930373
684.00  -1.64546653   0.36246504
686.00  -1.67780460   0.36564475
688.00  -1.71023548   0.36884293
690.00  -1.74275914   0.37205962
692.00  -1.77537557   0.37529488
694.00  -1.80808476   0.37854875
696.00  -1.84088669   0.38182130
698.00  -1.87378135   0.38511257
700.00  -1.90676872   0.38842261
702.00  -1.93984880   0.39175148
704.00  -1.97302156   0.39509923
706.00  -2.00628699   0.39846592
708.00  -2.03964509   0.40185159
710.00  -2.07309582   0.40525629
712.00  -2.10663918   0.40868008
714.00  -2.14027516   0.41212302
716.00  -2.17400373   0.41558514
718.00  -2.20782489   0.41906651
720.00  -2.24173862   0.42256718
722.00  -2.27574491   0.42608719
724.00  -2.30984374   0.42962661
726.00  -2.34403509   0.43318548
728.00  -2.37831895   0.43676385
730.00  -2.41269531   0.44036178
732.00  -2.44716416   0.44397932
734.00  -2.48172547   0.44761652
736.00  -2.51637923   0.45127344
738.00  -2.55112542   0.45495012
740.00  -2.58596404   0.45864661
742.00  -2.62089507   0.46236298
744.00  -2.65591849   0.46609926
746.00  -2.69103429   0.46985552
748.00  -2.72624244   0.47363180
750.00  -2.76154295   0.47742816
752.00  -2.79693578   0.48124464
754.00  -2.83242093   0.48508131
756.00  -2.86799838   0.48893821
758.00  -2.90366812   0.49281539
760.00  -2.93943012   0.49671290
762.00  -2.97528438   0.50063081
764.00  -3.01123088   0.50456915
766.00  -3.04726960   0.50852798
768.00  -3.08340053   0.51250736
770.00  -3.11962365   0.51650733
772.00  -3.15593895   0.52052794
774.00  -3.19234641   0.52456926
776.00  -3.22884602   0.52863132
778.00  -3.26543775   0.53271418
780.00  -3.30212160   0.53681790
782.00  -3.33889754   0.54094252
784.00  -3.37576557   0.54508809
786.00  -3.41272566   0.54925467
788.00  -3.44977781   0.55344232
790.00  -3.48692199   0.55765107
792.00  -3.52415818   0.56188098
794.00  -3.56148638   0.56613211
796.00  -3.59890657   0.57040450
798.00  -3.63641872   0.57469821
800.00  -3.67402283   0.57901329
802.00  -3.71171888   0.58334979
804.00  -3.74950684   0.58770775
806.00  -3.78738672   0.59208724
808.00  -3.82535848   0.59648831
810.00  -3.86342211   0.60091100
812.00  -3.90157760   0.60535537
814.00  -3.93982493   0.60982146
816.00  -3.97816409   0.61430933
818.00  -4.01659505   0.61881904
820.00  -4.05511780   0.62335063
822.00  -4.09373232   0.62790415
824.00  -4.13243860   0.63247965
826.00  -4.17123662   0.63707720
828.00  -4.21012636   0.64169683
830.00  -4.24910782   0.64633860
832.00  -4.28818096   0.65100255
834.00  -4.32734577   0.65568875
836.00  -4.36660224   0.66039724
838.00  -4.40595035   0.66512808
840.00  -4.44539009   0.66988131
842.00  -4.48492143   0.67465699
844.00  -4.52454435   0.67945516
846.00  -4.56425885   0.68427588
848.00  -4.60406491   0.68911920
850.00  -4.64396250   0.69398517
852.00  -4.68395161   0.69887385
854.00  -4.72403223   0.70378527
856.00  -4.76420433   0.70871950
858.00  -4.80446790   0.71367659
860.00  -4.84482292   0.71865658
862.00  -4.88526937   0.72365952
864.00  -4.92580725   0.72868548
866.00  -4.96643652   0.73373449
868.00  -5.00715717   0.73880661
870.00  -5.04796919   0.74390190
872.00  -5.08887255   0.74902039
874.00  -5.12986724   0.75416215
876.00  -5.17095325   0.75932722
878.00  -5.21213055   0.76451566
880.00  -5.25339912   0.76972751
882.00  -5.29475896   0.77496282
884.00  -5.33621003   0.78022165
886.00  -5.37775233   0.78550405
888.00  -5.41938584   0.79081007
890.00  -5.46111053   0.79613976
892.00  -5.50292639   0.80149317
894.00  -5.54483340   0.80687035
896.00  -5.58683154   0.81227134
898.00  -5.62892081   0.81769622
900.00  -5.67110116   0.82314501
902.00  -5.71337260   0.82861778
904.00  -5.75573510   0.83411457
906.00  -5.79818865   0.83963544
908.00  -5.84073321   0.84518043
910.00  -5.88336879   0.85074959
912.00  -5.92609535   0.85634299
914.00  -5.96891289   0.86196066
916.00  -6.01182137   0.86760266
918.00  -6.05482079   0.87326904
920.00  -6.09791112   0.87895984
922.00  -6.14109235   0.88467513
924.00  -6.18436446   0.89041494
926.00  -6.22772743   0.89617933
928.00  -6.27118124   0.90196836
930.00  -6.31472587   0.90778207
932.00  -6.35836131   0.91362050
934.00  -6.40208753   0.91948372
936.00  -6.44590451   0.92537177
938.00  -6.48981225   0.93128471
940.00  -6.53381071   0.93722258
942.00  -6.57789988   0.94318543
944.00  -6.62207975   0.94917331
946.00  -6.66635029   0.95518628
948.00  -6.71071148   0.96122438
950.00  -6.75516330   0.96728766
952.00  -6.79970574   0.97337618
954.00  -6.84433878   0.97948999
956.00  -6.88906239   0.98562913
958.00  -6.93387656   0.99179366
960.00  -6.97878127   0.99798362
962.00  -7.02377650   1.00419906
964.00  -7.06886223   1.01044004
966.00  -7.11403844   1.01670661
968.00  -7.15930512   1.02299882
970.00  -7.20466223   1.02931671
972.00  -7.25010977   1.03566033
974.00  -7.29564771   1.04202974
976.00  -7.34127604   1.04842499
978.00  -7.38699473   1.05484612
980.00  -7.43280377   1.06129319
982.00  -7.47870313   1.06776625
984.00  -7.52469280   1.07426534
986.00  -7.57077276   1.08079052
988.00  -7.61694298   1.08734183
990.00  -7.66320345   1.09391933
992.00  -7.70955415   1.10052306
994.00  -7.75599506   1.10715308
996.00  -7.80252615   1.11380944
998.00  -7.84914741   1.12049217
1000.00  -7.89585882   1.12720135
1002.00  -7.94266036   1.13393701
1004.00  -7.98955200   1.14069920
1006.00  -8.03653374   1.14748798
1008.00  -8.08360554   1.15430339
1010.00  -8.13076739   1.16114548
1012.00  -8.17801927   1.16801431
1014.00  -8.22536116   1.17490992
1016.00  -8.27279303   1.18183237
1018.00  -8.32031487   1.18878169
1020.00  -8.36792666   1.19575795
1022.00  -8.41562838   1.20276119
1024.00  -8.46342000   1.20979146
1026.00  -8.51130151   1.21684881
1028.00  -8.55927288   1.22393329
1030.00  -8.60733410   1.23104495
1032.00  -8.65548515   1.23818383
1034.00  -8.70372600   1.24535000
1036.00  -8.75205663   1.25254350
1038.00  -8.80047703   1.25976437
1040.00  -8.84898717   1.26701267
1042.00  -8.89758703   1.27428844
1044.00  -8.94627659   1.28159174
1046.00  -8.99505584   1.28892262
1048.00  -9.04392474   1.29628112
1050.00  -9.09288328   1.30366729
1052.00  -9.14193145   1.31108119
1054.00  -9.19106920   1.31852286
1056.00  -9.24029654   1.32599235
1058.00  -9.28961343   1.33348971
1060.00  -9.33901986   1.34101499
1062.00  -9.38851580   1.34856824
1064.00  -9.43810123   1.35614951
1066.00  -9.48777614   1.36375884
1068.00  -9.53754049   1.37139630
1070.00  -9.58739428   1.37906191
1072.00  -9.63733747   1.38675575
1074.00  -9.68737005   1.39447784
1076.00  -9.73749199   1.40222825
1078.00  -9.78770328   1.41000703
1080.00  -9.83800389   1.41781421
1082.00  -9.88839381   1.42564985
1084.00  -9.93887300   1.43351400
1086.00  -9.98944146   1.44140671
1088.00 -10.04009915   1.44932803
1090.00 -10.09084606   1.45727800
1092.00 -10.14168216   1.46525668
1094.00 -10.19260743   1.47326411
1096.00 -10.24362186   1.48130035
1098.00 -10.29472542   1.48936543
1100.00 -10.34591808   1.49745942
1102.00 -10.39719983   1.50558235
1104.00 -10.44857064   1.51373428
1106.00 -10.50003050   1.52191526
1108.00 -10.55157938   1.53012534
1110.00 -10.60321726   1.53836456
1112.00 -10.65494411   1.54663297
1114.00 -10.70675992   1.55493062
1116.00 -10.75866466   1.56325756
1118.00 -10.81065832   1.57161384
1120.00 -10.86274086   1.57999951
1122.00 -10.91491227   1.58841462
1124.00 -10.96717253   1.59685921
1126.00 -11.01952161   1.60533333
1128.00 -11.07195949   1.61383703
1130.00 -11.12448614   1.62237037
1132.00 -11.17710156   1.63093338
1134.00 -11.22980571   1.63952612
1136.00 -11.28259857   1.64814863
1138.00 -11.33548012   1.65680097
1140.00 -11.38845034   1.66548318
1142.00 -11.44150920   1.67419532
1144.00 -11.49465668   1.68293742
1146.00 -11.54789277   1.69170954
1148.00 -11.60121743   1.70051172
1150.00 -11.65463064   1.70934402
1152.00 -11.70813239   1.71820648
1154.00 -11.76172265   1.72709915
1156.00 -11.81540140   1.73602209
1158.00 -11.86916860   1.74497532
1160.00 -11.92302425   1.75395892
1162.00 -11.97696832   1.76297292
1164.00 -12.03100079   1.77201736
1166.00 -12.08512163   1.78109231
1168.00 -12.13933082   1.79019781
1170.00 -12.19362833   1.79933390
1172.00 -12.24801415   1.80850064
1174.00 -12.30248825   1.81769807
1176.00 -12.35705061   1.82692624
1178.00 -12.41170121   1.83618520
1180.00 -12.46644002   1.84547499
1182.00 -12.52126702   1.85479567
1184.00 -12.57618218   1.86414728
1186.00 -12.63118549   1.87352987
1188.00 -12.68627691   1.88294349
1190.00 -12.74145643   1.89238818
1192.00 -12.79672403   1.90186400
1194.00 -12.85207968   1.91137099
1196.00 -12.90752335   1.92090920
1198.00 -12.96305503   1.93047868
1200.00 -13.01867468   1.94007947
1202.00 -13.07438229   1.94971162
1204.00 -13.13017784   1.95937519
1206.00 -13.18606129   1.96907021
1208.00 -13.24203264   1.97879674
1210.00 -13.29809184   1.98855482
1212.00 -13.35423888   1.99834450
1214.00 -13.41047374   2.00816583
1216.00 -13.46679639   2.01801886
1218.00 -13.52320680   2.02790363
1220.00 -13.57970496   2.03782020
1222.00 -13.63629084   2.04776860
1224.00 -13.69296442   2.05774889
1226.00 -13.74972567   2.06776111
1228.00 -13.80657456   2.07780532
1230.00 -13.86351109   2.08788155
1232.00 -13.92053521   2.09798986
1234.00 -13.97764691   2.10813029
1236.00 -14.03484616   2.11830290
1238.00 -14.09213294   2.12850772
1240.00 -14.14950723   2.13874481
1242.00 -14.20696900   2.14901421
1244.00 -14.26451822   2.15931597
1246.00 -14.32215488   2.16965014
1248.00 -14.37987894   2.18001677
1250.00 -14.43769039   2.19041590
1252.00 -14.49558919   2.20084757
1254.00 -14.55357533   2.21131185
1256.00 -14.61164879   2.22180876
1258.00 -14.66980952   2.23233837
1260.00 -14.72805753   2.24290071
1262.00 -14.78639276   2.25349584
1264.00 -14.84481521   2.26412381
1266.00 -14.90332485   2.27478465
1268.00 -14.96192166   2.28547842
1270.00 -15.02060560   2.29620516
1272.00 -15.07937666   2.30696492
1274.00 -15.13823481   2.31775774
1276.00 -15.19718002   2.32858368
1278.00 -15.25621228   2.33944279
1280.00 -15.31533155   2.35033510
1282.00 -15.37453781   2.36126066
1284.00 -15.43383104   2.37221953
1286.00 -15.49321121   2.38321174
1288.00 -15.55267829   2.39423735
1290.00 -15.61223227   2.40529640
1292.00 -15.67187312   2.41638894
1294.00 -15.73160081   2.42751501
1296.00 -15.79141531   2.43867467
1298.00 -15.85131660   2.44986795
