wavelength(nm)         real         imag
100.00   3.84470237   0.00052842
102.00   3.84246856   0.00056076
104.00   3.84019053   0.00059440
106.00   3.83786829   0.00062935
108.00   3.83550183   0.00066565
110.00   3.83309115   0.00070331
112.00   3.83063627   0.00074237
114.00   3.82813717   0.00078285
116.00   3.82559386   0.00082478
118.00   3.82300634   0.00086818
120.00   3.82037461   0.00091307
122.00   3.81769868   0.00095949
124.00   3.81497854   0.00100745
126.00   3.81221420   0.00105698
128.00   3.80940565   0.00110811
130.00   3.80655290   0.00116086
132.00   3.80365594   0.00121526
134.00   3.80071479   0.00127134
136.00   3.79772944   0.00132911
138.00   3.79469989   0.00138861
140.00   3.79162615   0.00144985
142.00   3.78850821   0.00151288
144.00   3.78534608   0.00157770
146.00   3.78213975   0.00164434
148.00   3.77888924   0.00171284
150.00   3.77559454   0.00178321
152.00   3.77225564   0.00185548
154.00   3.76887257   0.00192968
156.00   3.76544531   0.00200584
158.00   3.76197386   0.00208396
160.00   3.75845823   0.00216410
162.00   3.75489843   0.00224626
164.00   3.75129444   0.00233047
166.00   3.74764628   0.00241676
168.00   3.74395394   0.00250515
170.00   3.74021743   0.00259567
172.00   3.73643674   0.00268835
174.00   3.73261189   0.00278321
176.00   3.72874287   0.00288027
178.00   3.72482968   0.00297956
180.00   3.72087232   0.00308111
182.00   3.71687080   0.00318494
184.00   3.71282512   0.00329107
186.00   3.70873528   0.00339954
188.00   3.70460128   0.00351036
190.00   3.70042312   0.00362356
192.00   3.69620081   0.00373917
194.00   3.69193435   0.00385722
196.00   3.68762373   0.00397772
198.00   3.68326897   0.00410070
200.00   3.67887006   0.00422619
202.00   3.67442700   0.00435422
204.00   3.66993980   0.00448481
206.00   3.66540846   0.00461797
208.00   3.66083298   0.00475375
210.00   3.65621336   0.00489217
212.00   3.65154961   0.00503324
214.00   3.64684173   0.00517700
216.00   3.64208971   0.00532346
218.00   3.63729356   0.00547267
220.00   3.63245329   0.00562463
222.00   3.62756889   0.00577938
224.00   3.62264037   0.00593695
226.00   3.61766772   0.00609735
228.00   3.61265096   0.00626061
230.00   3.60759009   0.00642676
232.00   3.60248510   0.00659582
234.00   3.59733599   0.00676782
236.00   3.59214278   0.00694278
238.00   3.58690546   0.00712073
240.00   3.58162403   0.00730169
242.00   3.57629851   0.00748569
244.00   3.57092888   0.00767276
246.00   3.56551515   0.00786291
248.00   3.56005733   0.00805618
250.00   3.55455542   0.00825259
252.00   3.54900941   0.00845216
254.00   3.54341932   0.00865493
256.00   3.53778514   0.00886091
258.00   3.53210687   0.00907013
260.00   3.52638453   0.00928261
262.00   3.52061811   0.00949839
264.00   3.51480761   0.00971748
266.00   3.50895303   0.00993991
268.00   3.50305439   0.01016571
270.00   3.49711168   0.01039490
272.00   3.49112490   0.01062751
274.00   3.48509406   0.01086356
276.00   3.47901916   0.01110308
278.00   3.47290020   0.01134609
280.00   3.46673719   0.01159261
282.00   3.46053012   0.01184268
284.00   3.45427900   0.01209632
286.00   3.44798384   0.01235355
288.00   3.44164463   0.01261440
290.00   3.43526138   0.01287890
292.00   3.42883409   0.01314706
294.00   3.42236277   0.01341892
296.00   3.41584741   0.01369449
298.00   3.40928803   0.01397381
300.00   3.40268461   0.01425690
302.00   3.39603718   0.01454378
304.00   3.38934572   0.01483449
306.00   3.38261024   0.01512903
308.00   3.37583074   0.01542745
310.00   3.36900724   0.01572976
312.00   3.36213972   0.01603600
314.00   3.35522820   0.01634618
316.00   3.34827267   0.01666033
318.00   3.34127314   0.01697847
320.00   3.33422962   0.01730064
322.00   3.32714210   0.01762685
324.00   3.32001058   0.01795713
326.00   3.31283508   0.01829151
328.00   3.30561560   0.01863001
330.00   3.29835213   0.01897266
332.00   3.29104469   0.01931948
334.00   3.28369327   0.01967050
336.00   3.27629787   0.02002573
338.00   3.26885851   0.02038522
340.00   3.26137518   0.02074897
342.00   3.25384789   0.02111703
344.00   3.24627664   0.02148940
346.00   3.23866143   0.02186613
348.00   3.23100227   0.02224722
350.00   3.22329917   0.02263272
352.00   3.21555211   0.02302263
354.00   3.20776111   0.02341700
356.00   3.19992618   0.02381583
358.00   3.19204730   0.02421917
360.00   3.18412450   0.02462702
362.00   3.17615776   0.02503943
364.00   3.16814711   0.02545641
366.00   3.16009252   0.02587798
368.00   3.15199402   0.02630418
370.00   3.14385161   0.02673503
372.00   3.13566528   0.02717055
374.00   3.12743505   0.02761077
376.00   3.11916091   0.02805571
378.00   3.11084287   0.02850541
380.00   3.10248094   0.02895987
382.00   3.09407511   0.02941913
384.00   3.08562539   0.02988322
386.00   3.07713179   0.03035215
388.00   3.06859430   0.03082596
390.00   3.06001294   0.03130467
392.00   3.05138770   0.03178830
394.00   3.04271859   0.03227688
396.00   3.03400561   0.03277043
398.00   3.02524877   0.03326899
400.00   3.01644807   0.03377256
402.00   3.00760351   0.03428119
404.00   2.99871510   0.03479488
406.00   2.98978285   0.03531368
408.00   2.98080675   0.03583760
410.00   2.97178681   0.03636667
412.00   2.96272303   0.03690091
414.00   2.95361542   0.03744035
416.00   2.94446398   0.03798502
418.00   2.93526872   0.03853493
420.00   2.92602964   0.03909012
422.00   2.91674674   0.03965060
424.00   2.90742003   0.04021641
426.00   2.89804951   0.04078757
428.00   2.88863519   0.04136410
430.00   2.87917707   0.04194602
432.00   2.86967515   0.04253338
434.00   2.86012944   0.04312618
436.00   2.85053994   0.04372445
438.00   2.84090666   0.04432822
440.00   2.83122960   0.04493751
442.00   2.82150877   0.04555235
444.00   2.81174416   0.04617277
446.00   2.80193579   0.04679878
448.00   2.79208366   0.04743041
450.00   2.78218776   0.04806770
452.00   2.77224812   0.04871065
454.00   2.76226472   0.04935930
456.00   2.75223758   0.05001368
458.00   2.74216670   0.05067380
460.00   2.73205209   0.05133969
462.00   2.72189374   0.05201138
464.00   2.71169167   0.05268889
466.00   2.70144587   0.05337225
468.00   2.69115635   0.05406148
470.00   2.68082312   0.05475660
472.00   2.67044618   0.05545765
474.00   2.66002554   0.05616464
476.00   2.64956119   0.05687761
478.00   2.63905315   0.05759657
480.00   2.62850142   0.05832155
482.00   2.61790600   0.05905257
484.00   2.60726690   0.05978967
486.00   2.59658412   0.06053286
488.00   2.58585767   0.06128217
490.00   2.57508756   0.06203763
492.00   2.56427377   0.06279925
494.00   2.55341633   0.06356707
496.00   2.54251524   0.06434111
498.00   2.53157050   0.06512140
500.00   2.52058211   0.06590795
502.00   2.50955008   0.06670079
504.00   2.49847442   0.06749996
506.00   2.48735513   0.06830546
508.00   2.47619221   0.06911734
510.00   2.46498567   0.06993561
512.00   2.45373552   0.07076029
514.00   2.44244176   0.07159142
516.00   2.43110439   0.07242901
518.00   2.41972342   0.07327310
520.00   2.40829886   0.07412370
522.00   2.39683070   0.07498085
524.00   2.38531896   0.07584456
526.00   2.37376364   0.07671486
528.00   2.36216474   0.07759177
530.00   2.35052227   0.07847533
532.00   2.33883624   0.07936555
534.00   2.32710664   0.08026246
536.00   2.31533349   0.08116609
538.00   2.30351679   0.08207645
540.00   2.29165655   0.08299358
542.00   2.27975276   0.08391749
544.00   2.26780544   0.08484822
546.00   2.25581459   0.08578579
548.00   2.24378022   0.08673022
550.00   2.23170232   0.08768154
552.00   2.21958092   0.08863977
554.00   2.20741600   0.08960494
556.00   2.19520758   0.09057706
558.00   2.18295566   0.09155618
560.00   2.17066025   0.09254230
562.00   2.15832135   0.09353546
564.00   2.14593898   0.09453568
566.00   2.13351312   0.09554298
568.00   2.12104379   0.09655739
570.00   2.10853100   0.09757894
572.00   2.09597474   0.09860764
574.00   2.08337504   0.09964353
576.00   2.07073188   0.10068662
578.00   2.05804528   0.10173695
580.00   2.04531523   0.10279454
582.00   2.03254176   0.10385940
584.00   2.01972486   0.10493157
586.00   2.00686454   0.10601108
588.00   1.99396080   0.10709793
590.00   1.98101365   0.10819217
592.00   1.96802309   0.10929381
594.00   1.95498914   0.11040288
596.00   1.94191179   0.11151941
598.00   1.92879106   0.11264341
600.00   1.91562694   0.11377491
602.00   1.90241944   0.11491394
604.00   1.88916858   0.11606053
606.00   1.87587435   0.11721469
608.00   1.86253676   0.11837645
610.00   1.84915581   0.11954583
612.00   1.83573152   0.12072287
614.00   1.82226389   0.12190758
616.00   1.80875292   0.12309998
618.00   1.79519862   0.12430011
620.00   1.78160100   0.12550799
622.00   1.76796005   0.12672364
624.00   1.75427580   0.12794709
626.00   1.74054824   0.12917836
628.00   1.72677737   0.13041748
630.00   1.71296322   0.13166446
632.00   1.69910577   0.13291934
634.00   1.68520504   0.13418214
636.00   1.67126104   0.13545288
638.00   1.65727376   0.13673159
640.00   1.64324322   0.13801830
642.00   1.62916942   0.13931302
644.00   1.61505237   0.14061578
646.00   1.60089207   0.14192660
648.00   1.58668853   0.14324552
650.00   1.57244176   0.14457255
652.00   1.55815176   0.14590772
654.00   1.54381854   0.14725106
656.00   1.52944210   0.14860258
658.00   1.51502246   0.14996231
660.00   1.50055961   0.15133028
662.00   1.48605356   0.15270651
664.00   1.47150433   0.15409103
666.00   1.45691191   0.15548385
668.00   1.44227631   0.15688501
670.00   1.42759754   0.15829453
672.00   1.41287561   0.15971243
674.00   1.39811051   0.16113874
676.00   1.38330227   0.16257347
678.00   1.36845088   0.16401667
680.00   1.35355635   0.16546834
682.00   1.33861868   0.16692852
684.00   1.32363789   0.16839723
686.00   1.30861398   0.16987449
688.00   1.29354696   0.17136032
690.00   1.27843683   0.17285476
692.00   1.26328360   0.17435783
694.00   1.24808727   0.17586954
696.00   1.23284786   0.17738993
698.00   1.21756536   0.17891902
700.00   1.20223980   0.18045683
702.00   1.18687116   0.18200338
704.00   1.17145946   0.18355871
706.00   1.15600471   0.18512284
708.00   1.14050692   0.18669578
710.00   1.12496608   0.18827757
712.00   1.10938220   0.18986822
714.00   1.09375530   0.19146777
716.00   1.07808538   0.19307624
718.00   1.06237245   0.19469364
720.00   1.04661650   0.19632001
722.00   1.03081756   0.19795537
724.00   1.01497563   0.19959975
726.00   0.99909070   0.20125316
728.00   0.98316280   0.20291563
730.00   0.96719193   0.20458719
732.00   0.95117808   0.20626786
734.00   0.93512128   0.20795766
736.00   0.91902153   0.20965662
738.00   0.90287884   0.21136477
740.00   0.88669320   0.21308212
742.00   0.87046463   0.21480870
744.00   0.85419314   0.21654454
746.00   0.83787873   0.21828965
748.00   0.82152142   0.22004407
750.00   0.80512119   0.22180782
752.00   0.78867808   0.22358091
754.00   0.77219207   0.22536338
756.00   0.75566318   0.22715526
758.00   0.73909142   0.22895655
760.00   0.72247679   0.23076729
762.00   0.70581930   0.23258751
764.00   0.68911896   0.23441722
766.00   0.67237577   0.23625645
768.00   0.65558974   0.23810522
770.00   0.63876088   0.23996356
772.00   0.62188919   0.24183150
774.00   0.60497469   0.24370905
776.00   0.58801738   0.24559623
778.00   0.57101727   0.24749309
780.00   0.55397436   0.24939963
782.00   0.53688867   0.25131588
784.00   0.51976019   0.25324187
786.00   0.50258894   0.25517762
788.00   0.48537493   0.25712315
790.00   0.46811815   0.25907849
792.00   0.45081863   0.26104366
794.00   0.43347637   0.26301868
796.00   0.41609136   0.26500359
798.00   0.39866363   0.26699840
800.00   0.38119318   0.26900314
802.00   0.36368002   0.27101783
804.00   0.34612415   0.27304249
806.00   0.32852558   0.27507715
808.00   0.31088432   0.27712184
810.00   0.29320038   0.27917657
812.00   0.27547376   0.28124137
814.00   0.25770448   0.28331627
816.00   0.23989254   0.28540129
818.00   0.22203794   0.28749645
820.00   0.20414070   0.28960177
822.00   0.18620082   0.29171729
824.00   0.16821831   0.29384302
826.00   0.15019318   0.29597898
828.00   0.13212544   0.29812521
830.00   0.11401509   0.30028173
832.00   0.09586214   0.30244855
834.00   0.07766661   0.30462571
836.00   0.05942849   0.30681322
838.00   0.04114779   0.30901111
840.00   0.02282453   0.31121941
842.00   0.00445871   0.31343814
844.00  -0.01394966   0.31566732
846.00  -0.03240058   0.31790697
848.00  -0.05089403   0.32015712
850.00  -0.06943001   0.32241780
852.00  -0.08800850   0.32468902
854.00  -0.10662951   0.32697082
856.00  -0.12529302   0.32926320
858.00  -0.14399903   0.33156621
860.00  -0.16274752   0.33387986
862.00  -0.18153850   0.33620417
864.00  -0.20037194   0.33853917
866.00  -0.21924785   0.34088489
868.00  -0.23816621   0.34324134
870.00  -0.25712702   0.34560855
872.00  -0.27613027   0.34798655
874.00  -0.29517595   0.35037535
876.00  -0.31426405   0.35277499
878.00  -0.33339457   0.35518548
880.00  -0.35256749   0.35760684
882.00  -0.37178281   0.36003911
884.00  -0.39104052   0.36248231
886.00  -0.41034061   0.36493645
888.00  -0.42968307   0.36740157
890.00  -0.44906790   0.36987768
892.00  -0.46849508   0.37236482
894.00  -0.48796461   0.37486299
896.00  -0.50747648   0.37737224
898.00  -0.52703069   0.37989257
900.00  -0.54662721   0.38242402
902.00  -0.56626605   0.38496661
904.00  -0.58594720   0.38752036
906.00  -0.60567064   0.39008529
908.00  -0.62543638   0.39266143
910.00  -0.64524439   0.39524881
912.00  -0.66509468   0.39784743
914.00  -0.68498723   0.40045734
916.00  -0.70492203   0.40307855
918.00  -0.72489909   0.40571109
920.00  -0.74491838   0.40835497
922.00  -0.76497990   0.41101023
924.00  -0.78508364   0.41367688
926.00  -0.80522959   0.41635496
928.00  -0.82541775   0.41904447
930.00  -0.84564810   0.42174546
932.00  -0.86592064   0.42445793
934.00  -0.88623535   0.42718192
936.00  -0.90659224   0.42991744
938.00  -0.92699128   0.43266452
940.00  -0.94743248   0.43542319
942.00  -0.96791582   0.43819346
944.00  -0.98844129   0.44097537
946.00  -1.00900889   0.44376893
948.00  -1.02961861   0.44657416
950.00  -1.05027043   0.44939110
952.00  -1.07096435   0.45221976
954.00  -1.09170037   0.45506016
956.00  -1.11247846   0.45791234
958.00  -1.13329863   0.46077631
960.00  -1.15416085   0.46365210
962.00  -1.17506514   0.46653972
964.00  -1.19601147   0.46943921
966.00  -1.21699983   0.47235059
968.00  -1.23803023   0.47527388
970.00  -1.25910264   0.47820910
972.00  -1.28021706   0.48115628
974.00  -1.30137348   0.48411544
976.00  -1.32257190   0.48708660
978.00  -1.34381229   0.49006978
980.00  -1.36509466   0.49306502
982.00  -1.38641900   0.49607233
984.00  -1.40778529   0.49909174
986.00  -1.42919352   0.50212326
988.00  -1.45064369   0.50516693
990.00  -1.47213579   0.50822276
992.00  -1.49366981   0.51129078
994.00  -1.51524574   0.51437101
996.00  -1.53686357   0.51746348
998.00  -1.55852329   0.52056821
1000.00  -1.58022489   0.52368522
1002.00  -1.60196837   0.52681453
1004.00  -1.62375370   0.52995617
1006.00  -1.64558089   0.53311016
1008.00  -1.66744993   0.53627652
1010.00  -1.68936080   0.53945529
1012.00  -1.71131350   0.54264647
1014.00  -1.73330801   0.54585009
1016.00  -1.75534434   0.54906618
1018.00  -1.77742245   0.55229476
1020.00  -1.79954236   0.55553585
1022.00  -1.82170405   0.55878948
1024.00  -1.84390751   0.56205566
1026.00  -1.86615272   0.56533443
1028.00  -1.88843969   0.56862580
1030.00  -1.91076840   0.57192980
1032.00  -1.93313884   0.57524645
1034.00  -1.95555100   0.57857577
1036.00  -1.97800488   0.58191779
1038.00  -2.00050045   0.58527252
1040.00  -2.02303773   0.58864000
1042.00  -2.04561668   0.59202025
1044.00  -2.06823731   0.59541328
1046.00  -2.09089961   0.59881912
1048.00  -2.11360356   0.60223780
1050.00  -2.13634915   0.60566933
1052.00  -2.15913638   0.60911375
1054.00  -2.18196524   0.61257106
1056.00  -2.20483571   0.61604131
1058.00  -2.22774779   0.61952450
1060.00  -2.25070147   0.62302066
1062.00  -2.27369673   0.62652981
1064.00  -2.29673357   0.63005199
1066.00  -2.31981198   0.63358720
1068.00  -2.34293195   0.63713548
1070.00  -2.36609346   0.64069684
1072.00  -2.38929651   0.64427131
1074.00  -2.41254109   0.64785891
1076.00  -2.43582719   0.65145966
1078.00  -2.45915480   0.65507359
1080.00  -2.48252390   0.65870072
1082.00  -2.50593450   0.66234107
1084.00  -2.52938657   0.66599467
1086.00  -2.55288011   0.66966154
1088.00  -2.57641511   0.67334169
1090.00  -2.59999156   0.67703516
1092.00  -2.62360945   0.68074197
1094.00  -2.64726877   0.68446213
1096.00  -2.67096950   0.68819568
1098.00  -2.69471165   0.69194262
1100.00  -2.71849519   0.69570300
1102.00  -2.74232012   0.69947683
1104.00  -2.76618643   0.70326412
1106.00  -2.79009411   0.70706491
1108.00  -2.81404314   0.71087922
1110.00  -2.83803353   0.71470707
1112.00  -2.86206525   0.71854849
1114.00  -2.88613830   0.72240348
1116.00  -2.91025266   0.72627209
1118.00  -2.93440834   0.73015432
1120.00  -2.95860531   0.73405021
1122.00  -2.98284357   0.73795977
1124.00  -3.00712310   0.74188304
1126.00  -3.03144390   0.74582002
1128.00  -3.05580596   0.74977075
1130.00  -3.08020926   0.75373524
1132.00  -3.10465379   0.75771352
1134.00  -3.12913956   0.76170561
1136.00  -3.15366653   0.76571153
1138.00  -3.17823471   0.76973132
1140.00  -3.20284409   0.77376497
1142.00  -3.22749464   0.77781253
1144.00  -3.25218638   0.78187402
1146.00  -3.27691927   0.78594945
1148.00  -3.30169331   0.79003884
1150.00  -3.32650850   0.79414223
1152.00  -3.35136482   0.79825963
1154.00  -3.37626226   0.80239107
1156.00  -3.40120080   0.80653656
1158.00  -3.42618045   0.81069614
1160.00  -3.45120119   0.81486982
1162.00  -3.47626300   0.81905762
1164.00  -3.50136589   0.82325957
1166.00  -3.52650983   0.82747569
1168.00  -3.55169481   0.83170600
1170.00  -3.57692083   0.83595053
1172.00  -3.60218788   0.84020930
1174.00  -3.62749594   0.84448232
1176.00  -3.65284501   0.84876962
1178.00  -3.67823507   0.85307123
1180.00  -3.70366611   0.85738717
1182.00  -3.72913812   0.86171745
1184.00  -3.75465110   0.86606211
1186.00  -3.78020502   0.87042115
1188.00  -3.80579989   0.87479462
1190.00  -3.83143568   0.87918252
1192.00  -3.85711239   0.88358488
1194.00  -3.88283001   0.88800172
1196.00  -3.90858852   0.89243306
1198.00  -3.93438792   0.89687894
1200.00  -3.96022820   0.90133936
1202.00  -3.98610934   0.90581435
1204.00  -4.01203133   0.91030393
1206.00  -4.03799416   0.91480813
1208.00  -4.06399782   0.91932697
1210.00  -4.09004230   0.92386047
1212.00  -4.11612759   0.92840864
1214.00  -4.14225368   0.93297152
1216.00  -4.16842056   0.93754913
1218.00  -4.19462821   0.94214149
1220.00  -4.22087663   0.94674861
1222.00  -4.24716580   0.95137053
1224.00  -4.27349571   0.95600726
1226.00  -4.29986636   0.96065883
1228.00  -4.32627773   0.96532525
1230.00  -4.35272980   0.97000656
1232.00  -4.37922257   0.97470277
1234.00  -4.40575604   0.97941390
1236.00  -4.43233017   0.98413998
1238.00  -4.45894497   0.98888103
1240.00  -4.48560043   0.99363707
1242.00  -4.51229653   0.99840812
1244.00  -4.53903326   1.00319420
1246.00  -4.56581061   1.00799534
1248.00  -4.59262856   1.01281156
1250.00  -4.61948712   1.01764288
1252.00  -4.64638626   1.02248932
1254.00  -4.67332598   1.02735090
1256.00  -4.70030626   1.03222765
1258.00  -4.72732709   1.03711959
1260.00  -4.75438847   1.04202674
1262.00  -4.78149037   1.04694912
1264.00  -4.80863279   1.05188675
1266.00  -4.83581572   1.05683966
1268.00  -4.86303914   1.06180787
1270.00  -4.89030305   1.06679139
1272.00  -4.91760743   1.07179026
1274.00  -4.94495227   1.07680448
1276.00  -4.97233756   1.08183410
1278.00  -4.99976329   1.08687911
1280.00  -5.02722945   1.09193956
1282.00  -5.05473602   1.09701546
1284.00  -5.08228299   1.10210682
1286.00  -5.10987036   1.10721368
1288.00  -5.13749811   1.11233606
1290.00  -5.16516623   1.11747397
1292.00  -5.19287470   1.12262744
1294.00  -5.22062352   1.12779649
1296.00  -5.24841267   1.13298114
1298.00  -5.27624215   1.13818142
