wavelength(nm)         real         imag
100.00   3.80575795   0.00090057
102.00   3.80195093   0.00095569
104.00   3.79806856   0.00101301
106.00   3.79411083   0.00107258
108.00   3.79007774   0.00113444
110.00   3.78596931   0.00119863
112.00   3.78178552   0.00126520
114.00   3.77752638   0.00133420
116.00   3.77319190   0.00140565
118.00   3.76878207   0.00147961
120.00   3.76429690   0.00155612
122.00   3.75973639   0.00163522
124.00   3.75510054   0.00171696
126.00   3.75038935   0.00180138
128.00   3.74560283   0.00188852
130.00   3.74074097   0.00197842
132.00   3.73580378   0.00207114
134.00   3.73079127   0.00216670
136.00   3.72570343   0.00226516
138.00   3.72054026   0.00236656
140.00   3.71530177   0.00247094
142.00   3.70998797   0.00257835
144.00   3.70459884   0.00268882
146.00   3.69913440   0.00280240
148.00   3.69359465   0.00291914
150.00   3.68797959   0.00303907
152.00   3.68228922   0.00316224
154.00   3.67652354   0.00328870
156.00   3.67068257   0.00341848
158.00   3.66476629   0.00355164
160.00   3.65877471   0.00368820
162.00   3.65270784   0.00382822
164.00   3.64656568   0.00397174
166.00   3.64034823   0.00411881
168.00   3.63405549   0.00426945
170.00   3.62768747   0.00442373
172.00   3.62124417   0.00458168
174.00   3.61472559   0.00474334
176.00   3.60813173   0.00490876
178.00   3.60146260   0.00507798
180.00   3.59471820   0.00525104
182.00   3.58789853   0.00542799
184.00   3.58100360   0.00560887
186.00   3.57403341   0.00579373
188.00   3.56698796   0.00598260
190.00   3.55986726   0.00617553
192.00   3.55267131   0.00637256
194.00   3.54540010   0.00657374
196.00   3.53805365   0.00677910
198.00   3.53063196   0.00698870
200.00   3.52313503   0.00720257
202.00   3.51556287   0.00742076
204.00   3.50791547   0.00764332
206.00   3.50019285   0.00787027
208.00   3.49239500   0.00810167
210.00   3.48452193   0.00833757
212.00   3.47657363   0.00857799
214.00   3.46855013   0.00882300
216.00   3.46045141   0.00907262
218.00   3.45227748   0.00932690
220.00   3.44402835   0.00958589
222.00   3.43570402   0.00984963
224.00   3.42730450   0.01011816
226.00   3.41882977   0.01039152
228.00   3.41027986   0.01066976
230.00   3.40165477   0.01095292
232.00   3.39295449   0.01124105
234.00   3.38417903   0.01153418
236.00   3.37532840   0.01183236
238.00   3.36640259   0.01213564
240.00   3.35740162   0.01244405
242.00   3.34832549   0.01275764
244.00   3.33917420   0.01307645
246.00   3.32994775   0.01340052
248.00   3.32064615   0.01372990
250.00   3.31126941   0.01406464
252.00   3.30181752   0.01440476
254.00   3.29229049   0.01475033
256.00   3.28268833   0.01510137
258.00   3.27301104   0.01545794
260.00   3.26325863   0.01582007
262.00   3.25343109   0.01618781
264.00   3.24352843   0.01656120
266.00   3.23355067   0.01694028
268.00   3.22349779   0.01732511
270.00   3.21336981   0.01771571
272.00   3.20316673   0.01811214
274.00   3.19288855   0.01851443
276.00   3.18253528   0.01892263
278.00   3.17210693   0.01933679
280.00   3.16160349   0.01975694
282.00   3.15102498   0.02018312
284.00   3.14037139   0.02061539
286.00   3.12964274   0.02105378
288.00   3.11883902   0.02149834
290.00   3.10796025   0.02194911
292.00   3.09700642   0.02240613
294.00   3.08597754   0.02286945
296.00   3.07487362   0.02333910
298.00   3.06369466   0.02381514
300.00   3.05244066   0.02429760
302.00   3.04111164   0.02478652
304.00   3.02970759   0.02528196
306.00   3.01822852   0.02578395
308.00   3.00667443   0.02629253
310.00   2.99504534   0.02680776
312.00   2.98334124   0.02732966
314.00   2.97156215   0.02785829
316.00   2.95970805   0.02839368
318.00   2.94777897   0.02893589
320.00   2.93577491   0.02948495
322.00   2.92369587   0.03004090
324.00   2.91154185   0.03060379
326.00   2.89931287   0.03117366
328.00   2.88700892   0.03175056
330.00   2.87463002   0.03233452
332.00   2.86217617   0.03292560
334.00   2.84964736   0.03352382
336.00   2.83704362   0.03412924
338.00   2.82436495   0.03474190
340.00   2.81161134   0.03536184
342.00   2.79878281   0.03598910
344.00   2.78587936   0.03662373
346.00   2.77290099   0.03726577
348.00   2.75984772   0.03791526
350.00   2.74671955   0.03857224
352.00   2.73351648   0.03923677
354.00   2.72023853   0.03990887
356.00   2.70688568   0.04058859
358.00   2.69345796   0.04127598
360.00   2.67995537   0.04197108
362.00   2.66637791   0.04267393
364.00   2.65272559   0.04338457
366.00   2.63899841   0.04410305
368.00   2.62519639   0.04482941
370.00   2.61131952   0.04556369
372.00   2.59736782   0.04630594
374.00   2.58334128   0.04705619
376.00   2.56923993   0.04781449
378.00   2.55506375   0.04858089
380.00   2.54081276   0.04935542
382.00   2.52648696   0.05013812
384.00   2.51208637   0.05092905
386.00   2.49761098   0.05172824
388.00   2.48306080   0.05253574
390.00   2.46843585   0.05335159
392.00   2.45373612   0.05417583
394.00   2.43896162   0.05500850
396.00   2.42411236   0.05584964
398.00   2.40918834   0.05669931
400.00   2.39418958   0.05755754
402.00   2.37911607   0.05842437
404.00   2.36396783   0.05929985
406.00   2.34874486   0.06018402
408.00   2.33344717   0.06107692
410.00   2.31807476   0.06197860
412.00   2.30262765   0.06288909
414.00   2.28710583   0.06380844
416.00   2.27150932   0.06473670
418.00   2.25583811   0.06567390
420.00   2.24009223   0.06662008
422.00   2.22427167   0.06757530
424.00   2.20837645   0.06853959
426.00   2.19240656   0.06951300
428.00   2.17636202   0.07049556
430.00   2.16024283   0.07148732
432.00   2.14404901   0.07248833
434.00   2.12778055   0.07349862
436.00   2.11143746   0.07451823
438.00   2.09501975   0.07554722
440.00   2.07852744   0.07658562
442.00   2.06196052   0.07763348
444.00   2.04531900   0.07869083
446.00   2.02860289   0.07975772
448.00   2.01181220   0.08083420
450.00   1.99494694   0.08192030
452.00   1.97800711   0.08301607
454.00   1.96099271   0.08412154
456.00   1.94390377   0.08523677
458.00   1.92674028   0.08636180
460.00   1.90950225   0.08749666
462.00   1.89218969   0.08864140
464.00   1.87480260   0.08979606
466.00   1.85734100   0.09096068
468.00   1.83980490   0.09213532
470.00   1.82219429   0.09332000
472.00   1.80450919   0.09451477
474.00   1.78674961   0.09571968
476.00   1.76891555   0.09693476
478.00   1.75100702   0.09816006
480.00   1.73302402   0.09939562
482.00   1.71496658   0.10064149
484.00   1.69683469   0.10189770
486.00   1.67862836   0.10316430
488.00   1.66034760   0.10444133
490.00   1.64199242   0.10572883
492.00   1.62356282   0.10702684
494.00   1.60505882   0.10833541
496.00   1.58648042   0.10965458
498.00   1.56782763   0.11098440
500.00   1.54910046   0.11232489
502.00   1.53029891   0.11367611
504.00   1.51142300   0.11503810
506.00   1.49247274   0.11641090
508.00   1.47344812   0.11779456
510.00   1.45434916   0.11918911
512.00   1.43517587   0.12059459
514.00   1.41592826   0.12201106
516.00   1.39660633   0.12343854
518.00   1.37721009   0.12487709
520.00   1.35773956   0.12632675
522.00   1.33819473   0.12778755
524.00   1.31857562   0.12925955
526.00   1.29888224   0.13074277
528.00   1.27911460   0.13223727
530.00   1.25927270   0.13374309
532.00   1.23935655   0.13526027
534.00   1.21936616   0.13678885
536.00   1.19930154   0.13832887
538.00   1.17916270   0.13988037
540.00   1.15894965   0.14144341
542.00   1.13866239   0.14301801
544.00   1.11830094   0.14460422
546.00   1.09786531   0.14620209
548.00   1.07735549   0.14781165
550.00   1.05677151   0.14943296
552.00   1.03611337   0.15106604
554.00   1.01538107   0.15271094
556.00   0.99457464   0.15436771
558.00   0.97369407   0.15603638
560.00   0.95273938   0.15771700
562.00   0.93171058   0.15940961
564.00   0.91060767   0.16111425
566.00   0.88943067   0.16283097
568.00   0.86817957   0.16455980
570.00   0.84685440   0.16630079
572.00   0.82545517   0.16805398
574.00   0.80398187   0.16981941
576.00   0.78243452   0.17159712
578.00   0.76081314   0.17338716
580.00   0.73911772   0.17518957
582.00   0.71734828   0.17700439
584.00   0.69550483   0.17883166
586.00   0.67358738   0.18067142
588.00   0.65159593   0.18252372
590.00   0.62953050   0.18438859
592.00   0.60739110   0.18626609
594.00   0.58517773   0.18815624
596.00   0.56289041   0.19005910
598.00   0.54052914   0.19197470
600.00   0.51809394   0.19390309
602.00   0.49558481   0.19584430
604.00   0.47300177   0.19779839
606.00   0.45034482   0.19976539
608.00   0.42761398   0.20174534
610.00   0.40480925   0.20373829
612.00   0.38193064   0.20574427
614.00   0.35897816   0.20776334
616.00   0.33595183   0.20979552
618.00   0.31285166   0.21184087
620.00   0.28967764   0.21389942
622.00   0.26642980   0.21597122
624.00   0.24310815   0.21805630
626.00   0.21971269   0.22015472
628.00   0.19624343   0.22226650
630.00   0.17270038   0.22439170
632.00   0.14908356   0.22653035
634.00   0.12539298   0.22868250
636.00   0.10162864   0.23084819
638.00   0.07779055   0.23302746
640.00   0.05387873   0.23522034
642.00   0.02989319   0.23742689
644.00   0.00583393   0.23964715
646.00  -0.01829903   0.24188115
648.00  -0.04250568   0.24412894
650.00  -0.06678602   0.24639056
652.00  -0.09114002   0.24866605
654.00  -0.11556769   0.25095545
656.00  -0.14006901   0.25325881
658.00  -0.16464397   0.25557616
660.00  -0.18929256   0.25790755
662.00  -0.21401477   0.26025302
664.00  -0.23881058   0.26261260
666.00  -0.26368000   0.26498635
668.00  -0.28862300   0.26737431
670.00  -0.31363957   0.26977650
672.00  -0.33872971   0.27219299
674.00  -0.36389341   0.27462380
676.00  -0.38913065   0.27706898
678.00  -0.41444142   0.27952857
680.00  -0.43982571   0.28200261
682.00  -0.46528351   0.28449115
684.00  -0.49081481   0.28699422
686.00  -0.51641960   0.28951187
688.00  -0.54209786   0.29204414
690.00  -0.56784960   0.29459106
692.00  -0.59367478   0.29715269
694.00  -0.61957341   0.29972906
696.00  -0.64554548   0.30232021
698.00  -0.67159096   0.30492619
700.00  -0.69770986   0.30754703
702.00  -0.72390215   0.31018278
704.00  -0.75016783   0.31283348
706.00  -0.77650689   0.31549916
708.00  -0.80291931   0.31817988
710.00  -0.82940508   0.32087568
712.00  -0.85596420   0.32358658
714.00  -0.88259664   0.32631264
716.00  -0.90930241   0.32905390
718.00  -0.93608148   0.33181040
720.00  -0.96293385   0.33458217
722.00  -0.98985950   0.33736926
724.00  -1.01685843   0.34017172
726.00  -1.04393061   0.34298958
728.00  -1.07107605   0.34582288
730.00  -1.09829472   0.34867166
732.00  -1.12558662   0.35153598
734.00  -1.15295173   0.35441586
736.00  -1.18039004   0.35731134
738.00  -1.20790155   0.36022248
740.00  -1.23548623   0.36314931
742.00  -1.26314408   0.36609187
744.00  -1.29087508   0.36905020
746.00  -1.31867922   0.37202435
748.00  -1.34655650   0.37501435
750.00  -1.37450689   0.37802025
752.00  -1.40253039   0.38104208
754.00  -1.43062699   0.38407989
756.00  -1.45879666   0.38713373
758.00  -1.48703941   0.39020362
760.00  -1.51535521   0.39328961
762.00  -1.54374406   0.39639175
764.00  -1.57220594   0.39951007
766.00  -1.60074085   0.40264461
768.00  -1.62934876   0.40579542
770.00  -1.65802967   0.40896253
772.00  -1.68678356   0.41214599
774.00  -1.71561043   0.41534584
776.00  -1.74451025   0.41856212
778.00  -1.77348302   0.42179487
780.00  -1.80252872   0.42504413
782.00  -1.83164735   0.42830994
784.00  -1.86083889   0.43159234
786.00  -1.89010332   0.43489137
788.00  -1.91944063   0.43820708
790.00  -1.94885082   0.44153951
792.00  -1.97833387   0.44488869
794.00  -2.00788976   0.44825467
796.00  -2.03751848   0.45163748
798.00  -2.06722003   0.45503717
800.00  -2.09699438   0.45845379
802.00  -2.12684153   0.46188736
804.00  -2.15676146   0.46533793
806.00  -2.18675416   0.46880554
808.00  -2.21681961   0.47229024
810.00  -2.24695781   0.47579205
812.00  -2.27716874   0.47931104
814.00  -2.30745238   0.48284722
816.00  -2.33780873   0.48640065
818.00  -2.36823777   0.48997137
820.00  -2.39873949   0.49355941
822.00  -2.42931388   0.49716481
824.00  -2.45996091   0.50078763
826.00  -2.49068059   0.50442789
828.00  -2.52147289   0.50808564
830.00  -2.55233780   0.51176092
832.00  -2.58327531   0.51545377
834.00  -2.61428540   0.51916423
836.00  -2.64536807   0.52289235
838.00  -2.67652330   0.52663815
840.00  -2.70775107   0.53040168
842.00  -2.73905137   0.53418299
844.00  -2.77042420   0.53798211
846.00  -2.80186952   0.54179908
848.00  -2.83338734   0.54563395
850.00  -2.86497764   0.54948675
852.00  -2.89664040   0.55335753
854.00  -2.92837562   0.55724632
856.00  -2.96018326   0.56115316
858.00  -2.99206334   0.56507811
860.00  -3.02401582   0.56902119
862.00  -3.05604070   0.57298244
864.00  -3.08813796   0.57696192
866.00  -3.12030759   0.58095965
868.00  -3.15254958   0.58497567
870.00  -3.18486390   0.58901004
872.00  -3.21725055   0.59306279
874.00  -3.24970952   0.59713395
876.00  -3.28224078   0.60122357
878.00  -3.31484433   0.60533170
880.00  -3.34752016   0.60945836
882.00  -3.38026823   0.61360360
884.00  -3.41308855   0.61776746
886.00  -3.44598111   0.62194999
888.00  -3.47894587   0.62615121
890.00  -3.51198284   0.63037117
892.00  -3.54509199   0.63460992
894.00  -3.57827332   0.63886749
896.00  -3.61152680   0.64314391
898.00  -3.64485243   0.64743924
900.00  -3.67825018   0.65175351
902.00  -3.71172006   0.65608677
904.00  -3.74526203   0.66043904
906.00  -3.77887609   0.66481038
908.00  -3.81256222   0.66920082
910.00  -3.84632041   0.67361040
912.00  -3.88015065   0.67803916
914.00  -3.91405291   0.68248715
916.00  -3.94802718   0.68695439
918.00  -3.98207346   0.69144094
920.00  -4.01619172   0.69594684
922.00  -4.05038195   0.70047211
924.00  -4.08464414   0.70501681
926.00  -4.11897827   0.70958097
928.00  -4.15338433   0.71416463
930.00  -4.18786229   0.71876783
932.00  -4.22241216   0.72339061
934.00  -4.25703390   0.72803302
936.00  -4.29172752   0.73269509
938.00  -4.32649298   0.73737686
940.00  -4.36133029   0.74207837
942.00  -4.39623941   0.74679966
944.00  -4.43122035   0.75154078
946.00  -4.46627308   0.75630175
948.00  -4.50139758   0.76108263
950.00  -4.53659385   0.76588344
952.00  -4.57186187   0.77070424
954.00  -4.60720162   0.77554506
956.00  -4.64261308   0.78040593
958.00  -4.67809625   0.78528691
960.00  -4.71365111   0.79018802
962.00  -4.74927764   0.79510932
964.00  -4.78497582   0.80005083
966.00  -4.82074565   0.80501260
968.00  -4.85658710   0.80999467
970.00  -4.89250017   0.81499708
972.00  -4.92848483   0.82001987
974.00  -4.96454107   0.82506307
976.00  -5.00066887   0.83012673
978.00  -5.03686823   0.83521088
980.00  -5.07313912   0.84031557
982.00  -5.10948153   0.84544084
984.00  -5.14589544   0.85058672
986.00  -5.18238083   0.85575325
988.00  -5.21893770   0.86094048
990.00  -5.25556603   0.86614844
992.00  -5.29226580   0.87137717
994.00  -5.32903699   0.87662672
996.00  -5.36587959   0.88189712
998.00  -5.40279359   0.88718841
1000.00  -5.43977896   0.89250063
1002.00  -5.47683569   0.89783382
1004.00  -5.51396378   0.90318802
1006.00  -5.55116319   0.90856327
1008.00  -5.58843391   0.91395961
1010.00  -5.62577594   0.91937707
1012.00  -5.66318925   0.92481571
1014.00  -5.70067382   0.93027554
1016.00  -5.73822965   0.93575663
1018.00  -5.77585671   0.94125900
1020.00  -5.81355499   0.94678269
1022.00  -5.85132447   0.95232775
1024.00  -5.88916514   0.95789420
1026.00  -5.92707698   0.96348210
1028.00  -5.96505997   0.96909149
1030.00  -6.00311411   0.97472239
1032.00  -6.04123936   0.98037485
1034.00  -6.07943572   0.98604891
1036.00  -6.11770317   0.99174461
1038.00  -6.15604169   0.99746198
1040.00  -6.19445127   1.00320108
1042.00  -6.23293189   1.00896192
1044.00  -6.27148354   1.01474456
1046.00  -6.31010619   1.02054904
1048.00  -6.34879984   1.02637538
1050.00  -6.38756445   1.03222364
1052.00  -6.42640003   1.03809385
1054.00  -6.46530655   1.04398605
1056.00  -6.50428400   1.04990028
1058.00  -6.54333235   1.05583657
1060.00  -6.58245160   1.06179497
1062.00  -6.62164172   1.06777552
1064.00  -6.66090270   1.07377825
1066.00  -6.70023452   1.07980321
1068.00  -6.73963717   1.08585042
1070.00  -6.77911063   1.09191994
1072.00  -6.81865487   1.09801180
1074.00  -6.85826990   1.10412604
1076.00  -6.89795568   1.11026269
1078.00  -6.93771221   1.11642180
1080.00  -6.97753945   1.12260341
1082.00  -7.01743741   1.12880755
1084.00  -7.05740606   1.13503426
1086.00  -7.09744538   1.14128359
1088.00  -7.13755536   1.14755557
1090.00  -7.17773598   1.15385023
1092.00  -7.21798722   1.16016763
1094.00  -7.25830906   1.16650779
1096.00  -7.29870150   1.17287075
1098.00  -7.33916450   1.17925656
1100.00  -7.37969807   1.18566526
1102.00  -7.42030216   1.19209687
1104.00  -7.46097678   1.19855144
1106.00  -7.50172190   1.20502902
1108.00  -7.54253751   1.21152963
1110.00  -7.58342358   1.21805331
1112.00  -7.62438011   1.22460011
1114.00  -7.66540707   1.23117007
1116.00  -7.70650444   1.23776321
1118.00  -7.74767221   1.24437959
1120.00  -7.78891037   1.25101923
1122.00  -7.83021889   1.25768218
1124.00  -7.87159775   1.26436847
1126.00  -7.91304694   1.27107815
1128.00  -7.95456645   1.27781125
1130.00  -7.99615624   1.28456782
1132.00  -8.03781632   1.29134788
1134.00  -8.07954665   1.29815148
1136.00  -8.12134722   1.30497865
1138.00  -8.16321802   1.31182944
1140.00  -8.20515902   1.31870388
1142.00  -8.24717020   1.32560201
1144.00  -8.28925156   1.33252387
1146.00  -8.33140307   1.33946950
1148.00  -8.37362472   1.34643894
1150.00  -8.41591648   1.35343221
1152.00  -8.45827834   1.36044937
1154.00  -8.50071027   1.36749045
1156.00  -8.54321228   1.37455549
1158.00  -8.58578432   1.38164453
1160.00  -8.62842640   1.38875760
1162.00  -8.67113848   1.39589474
1164.00  -8.71392055   1.40305600
1166.00  -8.75677259   1.41024140
1168.00  -8.79969459   1.41745100
1170.00  -8.84268653   1.42468481
1172.00  -8.88574838   1.43194289
1174.00  -8.92888013   1.43922528
1176.00  -8.97208177   1.44653200
1178.00  -9.01535327   1.45386310
1180.00  -9.05869461   1.46121862
1182.00  -9.10210578   1.46859858
1184.00  -9.14558676   1.47600305
1186.00  -9.18913753   1.48343204
1188.00  -9.23275807   1.49088559
1190.00  -9.27644836   1.49836376
1192.00  -9.32020839   1.50586656
1194.00  -9.36403814   1.51339405
1196.00  -9.40793758   1.52094626
1198.00  -9.45190671   1.52852322
1200.00  -9.49594549   1.53612498
1202.00  -9.54005392   1.54375157
1204.00  -9.58423197   1.55140303
1206.00  -9.62847963   1.55907940
1208.00  -9.67279687   1.56678072
1210.00  -9.71718369   1.57450702
1212.00  -9.76164005   1.58225834
1214.00  -9.80616594   1.59003471
1216.00  -9.85076134   1.59783619
1218.00  -9.89542624   1.60566280
1220.00  -9.94016061   1.61351458
1222.00  -9.98496444   1.62139157
1224.00 -10.02983770   1.62929381
1226.00 -10.07478038   1.63722134
1228.00 -10.11979246   1.64517418
1230.00 -10.16487392   1.65315239
1232.00 -10.21002474   1.66115599
1234.00 -10.25524490   1.66918503
1236.00 -10.30053439   1.67723954
1238.00 -10.34589318   1.68531956
1240.00 -10.39132125   1.69342513
1242.00 -10.43681859   1.70155629
1244.00 -10.48238518   1.70971306
1246.00 -10.52802099   1.71789550
1248.00 -10.57372602   1.72610363
1250.00 -10.61950023   1.73433750
1252.00 -10.66534361   1.74259714
1254.00 -10.71125614   1.75088259
1256.00 -10.75723780   1.75919389
1258.00 -10.80328858   1.76753107
1260.00 -10.84940845   1.77589417
1262.00 -10.89559739   1.78428323
1264.00 -10.94185538   1.79269829
1266.00 -10.98818241   1.80113938
1268.00 -11.03457846   1.80960654
1270.00 -11.08104350   1.81809980
1272.00 -11.12757752   1.82661922
1274.00 -11.17418049   1.83516481
1276.00 -11.22085240   1.84373662
1278.00 -11.26759323   1.85233469
1280.00 -11.31440295   1.86095905
1282.00 -11.36128156   1.86960975
1284.00 -11.40822902   1.87828681
1286.00 -11.45524532   1.88699027
1288.00 -11.50233044   1.89572018
1290.00 -11.54948437   1.90447657
1292.00 -11.59670707   1.91325947
1294.00 -11.64399853   1.92206892
1296.00 -11.69135873   1.93090497
1298.00 -11.73878765   1.93976764
