wavelength(nm)         real         imag
100.00   3.75619232   0.00137421
102.00   3.75038305   0.00145832
104.00   3.74445878   0.00154579
106.00   3.73841952   0.00163669
108.00   3.73226528   0.00173109
110.00   3.72599605   0.00182904
112.00   3.71961184   0.00193063
114.00   3.71311266   0.00203590
116.00   3.70649850   0.00214494
118.00   3.69976937   0.00225779
120.00   3.69292527   0.00237454
122.00   3.68596620   0.00249525
124.00   3.67889217   0.00261998
126.00   3.67170318   0.00274879
128.00   3.66439924   0.00288177
130.00   3.65698034   0.00301896
132.00   3.64944649   0.00316043
134.00   3.64179769   0.00330626
136.00   3.63403395   0.00345650
138.00   3.62615528   0.00361123
140.00   3.61816166   0.00377051
142.00   3.61005311   0.00393440
144.00   3.60182963   0.00410298
146.00   3.59349123   0.00427630
148.00   3.58503790   0.00445443
150.00   3.57646965   0.00463744
152.00   3.56778649   0.00482539
154.00   3.55898842   0.00501836
156.00   3.55007544   0.00521640
158.00   3.54104756   0.00541958
160.00   3.53190478   0.00562797
162.00   3.52264710   0.00584164
164.00   3.51327454   0.00606064
166.00   3.50378708   0.00628505
168.00   3.49418474   0.00651493
170.00   3.48446752   0.00675034
172.00   3.47463543   0.00699136
174.00   3.46468847   0.00723805
176.00   3.45462664   0.00749047
178.00   3.44444995   0.00774869
180.00   3.43415841   0.00801277
182.00   3.42375201   0.00828279
184.00   3.41323076   0.00855880
186.00   3.40259467   0.00884088
188.00   3.39184374   0.00912908
190.00   3.38097798   0.00942348
192.00   3.36999739   0.00972414
194.00   3.35890197   0.01003112
196.00   3.34769173   0.01034450
198.00   3.33636668   0.01066434
200.00   3.32492682   0.01099069
202.00   3.31337216   0.01132364
204.00   3.30170269   0.01166324
206.00   3.28991843   0.01200956
208.00   3.27801938   0.01236267
210.00   3.26600555   0.01272262
212.00   3.25387694   0.01308950
214.00   3.24163355   0.01346336
216.00   3.22927540   0.01384427
218.00   3.21680248   0.01423229
220.00   3.20421480   0.01462749
222.00   3.19151238   0.01502994
224.00   3.17869520   0.01543970
226.00   3.16576329   0.01585683
228.00   3.15271664   0.01628141
230.00   3.13955527   0.01671350
232.00   3.12627916   0.01715316
234.00   3.11288835   0.01760046
236.00   3.09938281   0.01805547
238.00   3.08576258   0.01851825
240.00   3.07202764   0.01898887
242.00   3.05817801   0.01946738
244.00   3.04421369   0.01995387
246.00   3.03013469   0.02044839
248.00   3.01594101   0.02095100
250.00   3.00163267   0.02146179
252.00   2.98720966   0.02198080
254.00   2.97267199   0.02250811
256.00   2.95801968   0.02304378
258.00   2.94325272   0.02358788
260.00   2.92837112   0.02414047
262.00   2.91337489   0.02470162
264.00   2.89826403   0.02527139
266.00   2.88303856   0.02584985
268.00   2.86769848   0.02643707
270.00   2.85224379   0.02703311
272.00   2.83667450   0.02763803
274.00   2.82099063   0.02825190
276.00   2.80519217   0.02887480
278.00   2.78927913   0.02950677
280.00   2.77325152   0.03014789
282.00   2.75710935   0.03079823
284.00   2.74085262   0.03145784
286.00   2.72448134   0.03212680
288.00   2.70799552   0.03280517
290.00   2.69139517   0.03349302
292.00   2.67468029   0.03419040
294.00   2.65785089   0.03489739
296.00   2.64090697   0.03561406
298.00   2.62384855   0.03634046
300.00   2.60667563   0.03707666
302.00   2.58938822   0.03782274
304.00   2.57198633   0.03857874
306.00   2.55446997   0.03934475
308.00   2.53683913   0.04012082
310.00   2.51909384   0.04090702
312.00   2.50123409   0.04170341
314.00   2.48325990   0.04251006
316.00   2.46517127   0.04332705
318.00   2.44696822   0.04415442
320.00   2.42865074   0.04499225
322.00   2.41021885   0.04584060
324.00   2.39167256   0.04669954
326.00   2.37301187   0.04756913
328.00   2.35423679   0.04844944
330.00   2.33534733   0.04934053
332.00   2.31634350   0.05024247
334.00   2.29722531   0.05115533
336.00   2.27799276   0.05207916
338.00   2.25864586   0.05301404
340.00   2.23918463   0.05396003
342.00   2.21960906   0.05491720
344.00   2.19991918   0.05588560
346.00   2.18011498   0.05686531
348.00   2.16019648   0.05785640
350.00   2.14016368   0.05885892
352.00   2.12001660   0.05987294
354.00   2.09975523   0.06089852
356.00   2.07937960   0.06193574
358.00   2.05888971   0.06298466
360.00   2.03828557   0.06404533
362.00   2.01756719   0.06511784
364.00   1.99673457   0.06620224
366.00   1.97578773   0.06729860
368.00   1.95472667   0.06840697
370.00   1.93355141   0.06952744
372.00   1.91226196   0.07066006
374.00   1.89085831   0.07180490
376.00   1.86934049   0.07296203
378.00   1.84770850   0.07413150
380.00   1.82596235   0.07531338
382.00   1.80410205   0.07650775
384.00   1.78212761   0.07771466
386.00   1.76003904   0.07893418
388.00   1.73783635   0.08016637
390.00   1.71551955   0.08141130
392.00   1.69308865   0.08266904
394.00   1.67054366   0.08393964
396.00   1.64788458   0.08522319
398.00   1.62511144   0.08651973
400.00   1.60222423   0.08782933
402.00   1.57922297   0.08915206
404.00   1.55610767   0.09048799
406.00   1.53287834   0.09183718
408.00   1.50953498   0.09319969
410.00   1.48607762   0.09457560
412.00   1.46250625   0.09596495
414.00   1.43882090   0.09736783
416.00   1.41502156   0.09878429
418.00   1.39110825   0.10021440
420.00   1.36708098   0.10165823
422.00   1.34293977   0.10311583
424.00   1.31868461   0.10458728
426.00   1.29431553   0.10607263
428.00   1.26983253   0.10757197
430.00   1.24523562   0.10908534
432.00   1.22052482   0.11061281
434.00   1.19570013   0.11215445
436.00   1.17076157   0.11371033
438.00   1.14570914   0.11528050
440.00   1.12054287   0.11686503
442.00   1.09526275   0.11846400
444.00   1.06986880   0.12007745
446.00   1.04436103   0.12170547
448.00   1.01873945   0.12334810
450.00   0.99300407   0.12500543
452.00   0.96715491   0.12667750
454.00   0.94119197   0.12836439
456.00   0.91511528   0.13006617
458.00   0.88892482   0.13178288
460.00   0.86262063   0.13351461
462.00   0.83620271   0.13526142
464.00   0.80967107   0.13702336
466.00   0.78302573   0.13880051
468.00   0.75626669   0.14059293
470.00   0.72939396   0.14240068
472.00   0.70240757   0.14422384
474.00   0.67530752   0.14606245
476.00   0.64809382   0.14791659
478.00   0.62076648   0.14978633
480.00   0.59332552   0.15167172
482.00   0.56577095   0.15357284
484.00   0.53810278   0.15548974
486.00   0.51032102   0.15742249
488.00   0.48242568   0.15937116
490.00   0.45441678   0.16133580
492.00   0.42629433   0.16331650
494.00   0.39805834   0.16531330
496.00   0.36970883   0.16732627
498.00   0.34124580   0.16935549
500.00   0.31266926   0.17140100
502.00   0.28397924   0.17346289
504.00   0.25517574   0.17554120
506.00   0.22625878   0.17763601
508.00   0.19722836   0.17974738
510.00   0.16808451   0.18187538
512.00   0.13882723   0.18402006
514.00   0.10945653   0.18618150
516.00   0.07997243   0.18835976
518.00   0.05037495   0.19055490
520.00   0.02066409   0.19276699
522.00  -0.00916014   0.19499609
524.00  -0.03909771   0.19724226
526.00  -0.06914862   0.19950558
528.00  -0.09931285   0.20178609
530.00  -0.12959040   0.20408388
532.00  -0.15998124   0.20639900
534.00  -0.19048536   0.20873152
536.00  -0.22110276   0.21108150
538.00  -0.25183341   0.21344900
540.00  -0.28267731   0.21583410
542.00  -0.31363443   0.21823685
544.00  -0.34470478   0.22065731
546.00  -0.37588833   0.22309556
548.00  -0.40718507   0.22555166
550.00  -0.43859498   0.22802567
552.00  -0.47011806   0.23051765
554.00  -0.50175428   0.23302767
556.00  -0.53350365   0.23555580
558.00  -0.56536613   0.23810209
560.00  -0.59734172   0.24066661
562.00  -0.62943041   0.24324944
564.00  -0.66163217   0.24585062
566.00  -0.69394700   0.24847022
568.00  -0.72637489   0.25110831
570.00  -0.75891581   0.25376496
572.00  -0.79156975   0.25644022
574.00  -0.82433670   0.25913416
576.00  -0.85721665   0.26184685
578.00  -0.89020958   0.26457834
580.00  -0.92331548   0.26732871
582.00  -0.95653433   0.27009801
584.00  -0.98986611   0.27288631
586.00  -1.02331082   0.27569368
588.00  -1.05686844   0.27852017
590.00  -1.09053895   0.28136586
592.00  -1.12432235   0.28423080
594.00  -1.15821860   0.28711506
596.00  -1.19222771   0.29001871
598.00  -1.22634965   0.29294180
600.00  -1.26058442   0.29588440
602.00  -1.29493199   0.29884658
604.00  -1.32939235   0.30182840
606.00  -1.36396548   0.30482992
608.00  -1.39865138   0.30785121
610.00  -1.43345002   0.31089232
612.00  -1.46836140   0.31395334
614.00  -1.50338549   0.31703430
616.00  -1.53852228   0.32013529
618.00  -1.57377175   0.32325637
620.00  -1.60913390   0.32639760
622.00  -1.64460870   0.32955903
624.00  -1.68019614   0.33274075
626.00  -1.71589620   0.33594280
628.00  -1.75170887   0.33916526
630.00  -1.78763413   0.34240818
632.00  -1.82367197   0.34567164
634.00  -1.85982237   0.34895569
636.00  -1.89608532   0.35226040
638.00  -1.93246080   0.35558583
640.00  -1.96894879   0.35893204
642.00  -2.00554928   0.36229910
644.00  -2.04226226   0.36568708
646.00  -2.07908770   0.36909603
648.00  -2.11602559   0.37252602
650.00  -2.15307591   0.37597712
652.00  -2.19023866   0.37944937
654.00  -2.22751381   0.38294286
656.00  -2.26490134   0.38645765
658.00  -2.30240125   0.38999378
660.00  -2.34001350   0.39355134
662.00  -2.37773810   0.39713038
664.00  -2.41557502   0.40073097
666.00  -2.45352424   0.40435317
668.00  -2.49158575   0.40799704
670.00  -2.52975954   0.41166265
672.00  -2.56804557   0.41535006
674.00  -2.60644385   0.41905933
676.00  -2.64495435   0.42279053
678.00  -2.68357706   0.42654372
680.00  -2.72231196   0.43031896
682.00  -2.76115902   0.43411632
684.00  -2.80011825   0.43793585
686.00  -2.83918961   0.44177763
688.00  -2.87837309   0.44564172
690.00  -2.91766868   0.44952817
692.00  -2.95707635   0.45343706
694.00  -2.99659610   0.45736844
696.00  -3.03622790   0.46132238
698.00  -3.07597174   0.46529895
700.00  -3.11582759   0.46929819
702.00  -3.15579545   0.47332019
704.00  -3.19587529   0.47736499
706.00  -3.23606710   0.48143267
708.00  -3.27637086   0.48552329
710.00  -3.31678656   0.48963690
712.00  -3.35731416   0.49377358
714.00  -3.39795367   0.49793339
716.00  -3.43870505   0.50211638
718.00  -3.47956830   0.50632263
720.00  -3.52054339   0.51055219
722.00  -3.56163031   0.51480512
724.00  -3.60282904   0.51908150
726.00  -3.64413956   0.52338138
728.00  -3.68556186   0.52770483
730.00  -3.72709591   0.53205190
732.00  -3.76874169   0.53642267
734.00  -3.81049920   0.54081719
736.00  -3.85236841   0.54523553
738.00  -3.89434930   0.54967775
740.00  -3.93644186   0.55414392
742.00  -3.97864607   0.55863408
744.00  -4.02096190   0.56314832
746.00  -4.06338935   0.56768669
748.00  -4.10592839   0.57224925
750.00  -4.14857900   0.57683607
752.00  -4.19134117   0.58144721
754.00  -4.23421487   0.58608272
756.00  -4.27720010   0.59074269
758.00  -4.32029682   0.59542716
760.00  -4.36350503   0.60013620
762.00  -4.40682470   0.60486987
764.00  -4.45025582   0.60962823
766.00  -4.49379836   0.61441136
768.00  -4.53745230   0.61921930
770.00  -4.58121764   0.62405213
772.00  -4.62509434   0.62890990
774.00  -4.66908240   0.63379267
776.00  -4.71318178   0.63870052
778.00  -4.75739248   0.64363350
780.00  -4.80171447   0.64859167
782.00  -4.84614773   0.65357510
784.00  -4.89069225   0.65858384
786.00  -4.93534801   0.66361797
788.00  -4.98011498   0.66867755
790.00  -5.02499315   0.67376263
792.00  -5.06998250   0.67887327
794.00  -5.11508301   0.68400955
796.00  -5.16029465   0.68917152
798.00  -5.20561741   0.69435925
800.00  -5.25105128   0.69957279
802.00  -5.29659622   0.70481221
804.00  -5.34225223   0.71007758
806.00  -5.38801928   0.71536895
808.00  -5.43389735   0.72068638
810.00  -5.47988642   0.72602994
812.00  -5.52598647   0.73139970
814.00  -5.57219748   0.73679570
816.00  -5.61851944   0.74221802
818.00  -5.66495232   0.74766671
820.00  -5.71149610   0.75314185
822.00  -5.75815076   0.75864348
824.00  -5.80491629   0.76417168
826.00  -5.85179265   0.76972650
828.00  -5.89877984   0.77530801
830.00  -5.94587783   0.78091627
832.00  -5.99308661   0.78655133
834.00  -6.04040614   0.79221327
836.00  -6.08783641   0.79790214
838.00  -6.13537741   0.80361801
840.00  -6.18302910   0.80936094
842.00  -6.23079148   0.81513098
844.00  -6.27866451   0.82092821
846.00  -6.32664818   0.82675268
848.00  -6.37474247   0.83260446
850.00  -6.42294736   0.83848360
852.00  -6.47126282   0.84439017
854.00  -6.51968884   0.85032423
856.00  -6.56822539   0.85628584
858.00  -6.61687246   0.86227507
860.00  -6.66563002   0.86829197
862.00  -6.71449805   0.87433661
864.00  -6.76347653   0.88040904
866.00  -6.81256544   0.88650934
868.00  -6.86176476   0.89263755
870.00  -6.91107447   0.89879375
872.00  -6.96049455   0.90497800
874.00  -7.01002497   0.91119035
876.00  -7.05966572   0.91743087
878.00  -7.10941676   0.92369961
880.00  -7.15927809   0.92999665
882.00  -7.20924968   0.93632204
884.00  -7.25933151   0.94267584
886.00  -7.30952356   0.94905812
888.00  -7.35982580   0.95546893
890.00  -7.41023822   0.96190835
892.00  -7.46076078   0.96837641
894.00  -7.51139348   0.97487320
896.00  -7.56213629   0.98139878
898.00  -7.61298919   0.98795319
900.00  -7.66395215   0.99453651
902.00  -7.71502515   1.00114879
904.00  -7.76620818   1.00779010
906.00  -7.81750120   1.01446049
908.00  -7.86890421   1.02116004
910.00  -7.92041716   1.02788879
912.00  -7.97204006   1.03464682
914.00  -8.02377286   1.04143417
916.00  -8.07561556   1.04825092
918.00  -8.12756812   1.05509713
920.00  -8.17963052   1.06197285
922.00  -8.23180275   1.06887814
924.00  -8.28408478   1.07581307
926.00  -8.33647659   1.08277770
928.00  -8.38897815   1.08977209
930.00  -8.44158945   1.09679630
932.00  -8.49431046   1.10385039
934.00  -8.54714115   1.11093442
936.00  -8.60008151   1.11804846
938.00  -8.65313151   1.12519256
940.00  -8.70629113   1.13236678
942.00  -8.75956035   1.13957119
944.00  -8.81293915   1.14680584
946.00  -8.86642749   1.15407080
948.00  -8.92002537   1.16136613
950.00  -8.97373275   1.16869188
952.00  -9.02754961   1.17604813
954.00  -9.08147593   1.18343492
956.00  -9.13551169   1.19085233
958.00  -9.18965687   1.19830040
960.00  -9.24391143   1.20577921
962.00  -9.29827536   1.21328881
964.00  -9.35274864   1.22082926
966.00  -9.40733123   1.22840062
968.00  -9.46202313   1.23600296
970.00  -9.51682430   1.24363633
972.00  -9.57173471   1.25130080
974.00  -9.62675436   1.25899642
976.00  -9.68188321   1.26672325
978.00  -9.73712124   1.27448137
980.00  -9.79246842   1.28227081
982.00  -9.84792474   1.29009166
984.00  -9.90349017   1.29794396
986.00  -9.95916469   1.30582778
988.00 -10.01494826   1.31374318
990.00 -10.07084088   1.32169021
992.00 -10.12684251   1.32966895
994.00 -10.18295312   1.33767944
996.00 -10.23917271   1.34572175
998.00 -10.29550124   1.35379594
1000.00 -10.35193868   1.36190207
1002.00 -10.40848502   1.37004019
1004.00 -10.46514023   1.37821038
1006.00 -10.52190429   1.38641269
1008.00 -10.57877717   1.39464717
1010.00 -10.63575884   1.40291390
1012.00 -10.69284929   1.41121292
1014.00 -10.75004849   1.41954430
1016.00 -10.80735641   1.42790811
1018.00 -10.86477303   1.43630439
1020.00 -10.92229833   1.44473321
1022.00 -10.97993228   1.45319463
1024.00 -11.03767486   1.46168871
1026.00 -11.09552603   1.47021551
1028.00 -11.15348579   1.47877509
1030.00 -11.21155410   1.48736750
1032.00 -11.26973093   1.49599282
1034.00 -11.32801627   1.50465109
1036.00 -11.38641009   1.51334238
1038.00 -11.44491236   1.52206675
1040.00 -11.50352306   1.53082426
1042.00 -11.56224216   1.53961496
1044.00 -11.62106965   1.54843892
1046.00 -11.68000548   1.55729620
1048.00 -11.73904965   1.56618686
1050.00 -11.79820211   1.57511094
1052.00 -11.85746286   1.58406853
1054.00 -11.91683186   1.59305967
1056.00 -11.97630909   1.60208442
1058.00 -12.03589451   1.61114285
1060.00 -12.09558812   1.62023501
1062.00 -12.15538988   1.62936096
1064.00 -12.21529977   1.63852077
1066.00 -12.27531775   1.64771448
1068.00 -12.33544381   1.65694217
1070.00 -12.39567793   1.66620389
1072.00 -12.45602006   1.67549970
1074.00 -12.51647020   1.68482965
1076.00 -12.57702830   1.69419382
1078.00 -12.63769436   1.70359225
1080.00 -12.69846834   1.71302501
1082.00 -12.75935021   1.72249215
1084.00 -12.82033995   1.73199374
1086.00 -12.88143754   1.74152984
1088.00 -12.94264294   1.75110050
1090.00 -13.00395614   1.76070578
1092.00 -13.06537710   1.77034574
1094.00 -13.12690580   1.78002044
1096.00 -13.18854222   1.78972994
1098.00 -13.25028633   1.79947430
1100.00 -13.31213809   1.80925358
1102.00 -13.37409749   1.81906784
1104.00 -13.43616450   1.82891713
1106.00 -13.49833910   1.83880151
1108.00 -13.56062125   1.84872105
1110.00 -13.62301093   1.85867580
1112.00 -13.68550811   1.86866582
1114.00 -13.74811277   1.87869117
1116.00 -13.81082488   1.88875191
1118.00 -13.87364442   1.89884810
1120.00 -13.93657135   1.90897980
1122.00 -13.99960566   1.91914706
1124.00 -14.06274730   1.92934994
1126.00 -14.12599627   1.93958850
1128.00 -14.18935252   1.94986281
1130.00 -14.25281604   1.96017291
1132.00 -14.31638680   1.97051888
1134.00 -14.38006477   1.98090076
1136.00 -14.44384992   1.99131862
1138.00 -14.50774222   2.00177250
1140.00 -14.57174165   2.01226249
1142.00 -14.63584819   2.02278862
1144.00 -14.70006180   2.03335096
1146.00 -14.76438246   2.04394957
1148.00 -14.82881014   2.05458451
1150.00 -14.89334481   2.06525583
1152.00 -14.95798645   2.07596359
1154.00 -15.02273503   2.08670785
1156.00 -15.08759051   2.09748868
1158.00 -15.15255289   2.10830612
1160.00 -15.21762211   2.11916023
1162.00 -15.28279817   2.13005109
1164.00 -15.34808103   2.14097873
1166.00 -15.41347066   2.15194322
1168.00 -15.47896704   2.16294462
1170.00 -15.54457014   2.17398299
1172.00 -15.61027992   2.18505839
1174.00 -15.67609637   2.19617086
1176.00 -15.74201946   2.20732048
1178.00 -15.80804915   2.21850729
1180.00 -15.87418543   2.22973137
1182.00 -15.94042825   2.24099275
1184.00 -16.00677760   2.25229151
1186.00 -16.07323344   2.26362771
1188.00 -16.13979575   2.27500138
1190.00 -16.20646451   2.28641261
1192.00 -16.27323967   2.29786144
1194.00 -16.34012121   2.30934793
1196.00 -16.40710912   2.32087214
1198.00 -16.47420334   2.33243413
1200.00 -16.54140387   2.34403396
1202.00 -16.60871067   2.35567167
1204.00 -16.67612371   2.36734734
1206.00 -16.74364296   2.37906102
1208.00 -16.81126840   2.39081276
1210.00 -16.87899999   2.40260262
1212.00 -16.94683771   2.41443067
1214.00 -17.01478154   2.42629695
1216.00 -17.08283143   2.43820154
1218.00 -17.15098736   2.45014447
1220.00 -17.21924931   2.46212581
1222.00 -17.28761725   2.47414563
1224.00 -17.35609114   2.48620397
1226.00 -17.42467095   2.49830089
1228.00 -17.49335667   2.51043645
1230.00 -17.56214825   2.52261071
1232.00 -17.63104568   2.53482373
1234.00 -17.70004892   2.54707556
1236.00 -17.76915794   2.55936626
1238.00 -17.83837271   2.57169588
1240.00 -17.90769321   2.58406449
1242.00 -17.97711940   2.59647214
1244.00 -18.04665126   2.60891889
1246.00 -18.11628876   2.62140479
1248.00 -18.18603186   2.63392991
1250.00 -18.25588054   2.64649429
1252.00 -18.32583478   2.65909801
1254.00 -18.39589453   2.67174110
1256.00 -18.46605977   2.68442364
1258.00 -18.53633047   2.69714567
1260.00 -18.60670660   2.70990726
1262.00 -18.67718814   2.72270846
1264.00 -18.74777505   2.73554933
1266.00 -18.81846730   2.74842992
1268.00 -18.88926486   2.76135030
1270.00 -18.96016771   2.77431051
1272.00 -19.03117581   2.78731062
1274.00 -19.10228913   2.80035068
1276.00 -19.17350765   2.81343075
1278.00 -19.24483133   2.82655088
1280.00 -19.31626014   2.83971114
1282.00 -19.38779406   2.85291157
1284.00 -19.45943305   2.86615224
1286.00 -19.53117709   2.87943321
1288.00 -19.60302614   2.89275452
1290.00 -19.67498018   2.90611623
1292.00 -19.74703917   2.91951841
1294.00 -19.81920308   2.93296110
1296.00 -19.89147189   2.94644437
1298.00 -19.96384556   2.95996827
