wavelength(nm)         real         imag
100.00   3.71724790   0.00174636
102.00   3.70986542   0.00185325
104.00   3.70233680   0.00196441
106.00   3.69466206   0.00207992
108.00   3.68684119   0.00219988
110.00   3.67887420   0.00232436
112.00   3.67076109   0.00245346
114.00   3.66250187   0.00258724
116.00   3.65409654   0.00272580
118.00   3.64554510   0.00286923
120.00   3.63684755   0.00301759
122.00   3.62800391   0.00317099
124.00   3.61901417   0.00332949
126.00   3.60987834   0.00349319
128.00   3.60059642   0.00366217
130.00   3.59116841   0.00383652
132.00   3.58159433   0.00401630
134.00   3.57187417   0.00420162
136.00   3.56200794   0.00439256
138.00   3.55199564   0.00458919
140.00   3.54183728   0.00479160
142.00   3.53153287   0.00499987
144.00   3.52108240   0.00521410
146.00   3.51048588   0.00543435
148.00   3.49974331   0.00566073
150.00   3.48885471   0.00589330
152.00   3.47782007   0.00613215
154.00   3.46663940   0.00637738
156.00   3.45531271   0.00662905
158.00   3.44383999   0.00688726
160.00   3.43222126   0.00715208
162.00   3.42045652   0.00742361
164.00   3.40854578   0.00770192
166.00   3.39648903   0.00798710
168.00   3.38428630   0.00827923
170.00   3.37193757   0.00857840
172.00   3.35944286   0.00888468
174.00   3.34680217   0.00919817
176.00   3.33401550   0.00951895
178.00   3.32108288   0.00984710
180.00   3.30800429   0.01018270
182.00   3.29477974   0.01052584
184.00   3.28140924   0.01087660
186.00   3.26789280   0.01123507
188.00   3.25423042   0.01160132
190.00   3.24042211   0.01197544
192.00   3.22646788   0.01235752
194.00   3.21236772   0.01274764
196.00   3.19812165   0.01314589
198.00   3.18372967   0.01355233
200.00   3.16919180   0.01396707
202.00   3.15450802   0.01439018
204.00   3.13967836   0.01482175
206.00   3.12470282   0.01526186
208.00   3.10958140   0.01571059
210.00   3.09431411   0.01616803
212.00   3.07890096   0.01663425
214.00   3.06334195   0.01710936
216.00   3.04763710   0.01759342
218.00   3.03178640   0.01808652
220.00   3.01578987   0.01858875
222.00   2.99964751   0.01910018
224.00   2.98335933   0.01962091
226.00   2.96692534   0.02015101
228.00   2.95034554   0.02069057
230.00   2.93361994   0.02123967
232.00   2.91674855   0.02179839
234.00   2.89973138   0.02236683
236.00   2.88256843   0.02294506
238.00   2.86525971   0.02353316
240.00   2.84780523   0.02413122
242.00   2.83020499   0.02473933
244.00   2.81245901   0.02535756
246.00   2.79456729   0.02598600
248.00   2.77652983   0.02662473
250.00   2.75834666   0.02727383
252.00   2.74001777   0.02793340
254.00   2.72154317   0.02860351
256.00   2.70292287   0.02928424
258.00   2.68415689   0.02997569
260.00   2.66524522   0.03067793
262.00   2.64618787   0.03139104
264.00   2.62698486   0.03211511
266.00   2.60763619   0.03285023
268.00   2.58814188   0.03359647
270.00   2.56850192   0.03435392
272.00   2.54871633   0.03512266
274.00   2.52878512   0.03590277
276.00   2.50870829   0.03669435
278.00   2.48848586   0.03749747
280.00   2.46811783   0.03831221
282.00   2.44760421   0.03913867
284.00   2.42694501   0.03997691
286.00   2.40614024   0.04082703
288.00   2.38518992   0.04168911
290.00   2.36409403   0.04256323
292.00   2.34285261   0.04344947
294.00   2.32146566   0.04434792
296.00   2.29993318   0.04525867
298.00   2.27825518   0.04618179
300.00   2.25643168   0.04711736
302.00   2.23446269   0.04806548
304.00   2.21234820   0.04902621
306.00   2.19008825   0.04999966
308.00   2.16768282   0.05098590
310.00   2.14513194   0.05198501
312.00   2.12243562   0.05299707
314.00   2.09959385   0.05402218
316.00   2.07660666   0.05506040
318.00   2.05347405   0.05611183
320.00   2.03019604   0.05717656
322.00   2.00677263   0.05825465
324.00   1.98320383   0.05934619
326.00   1.95948965   0.06045128
328.00   1.93563011   0.06156998
330.00   1.91162522   0.06270239
332.00   1.88747498   0.06384859
334.00   1.86317940   0.06500865
336.00   1.83873851   0.06618267
338.00   1.81415230   0.06737073
340.00   1.78942078   0.06857290
342.00   1.76454398   0.06978927
344.00   1.73952189   0.07101993
346.00   1.71435454   0.07226496
348.00   1.68904193   0.07352443
350.00   1.66358407   0.07479844
352.00   1.63798097   0.07608707
354.00   1.61223265   0.07739039
356.00   1.58633911   0.07870850
358.00   1.56030037   0.08004147
360.00   1.53411644   0.08138939
362.00   1.50778733   0.08275234
364.00   1.48131305   0.08413040
366.00   1.45469362   0.08552366
368.00   1.42792904   0.08693220
370.00   1.40101933   0.08835610
372.00   1.37396449   0.08979545
374.00   1.34676455   0.09125032
376.00   1.31941950   0.09272080
378.00   1.29192937   0.09420698
380.00   1.26429417   0.09570893
382.00   1.23651390   0.09722674
384.00   1.20858859   0.09876049
386.00   1.18051823   0.10031027
388.00   1.15230286   0.10187615
390.00   1.12394246   0.10345822
392.00   1.09543707   0.10505656
394.00   1.06678669   0.10667126
396.00   1.03799133   0.10830240
398.00   1.00905101   0.10995005
400.00   0.97996574   0.11161431
402.00   0.95073553   0.11329525
404.00   0.92136040   0.11499296
406.00   0.89184035   0.11670752
408.00   0.86217541   0.11843902
410.00   0.83236558   0.12018753
412.00   0.80241087   0.12195313
414.00   0.77231130   0.12373592
416.00   0.74206689   0.12553597
418.00   0.71167764   0.12735337
420.00   0.68114357   0.12918819
422.00   0.65046470   0.13104053
424.00   0.61964103   0.13291046
426.00   0.58867258   0.13479807
428.00   0.55755936   0.13670343
430.00   0.52630139   0.13862663
432.00   0.49489868   0.14056776
434.00   0.46335124   0.14252689
436.00   0.43165909   0.14450411
438.00   0.39982224   0.14649950
440.00   0.36784070   0.14851314
442.00   0.33571450   0.15054512
444.00   0.30344364   0.15259552
446.00   0.27102813   0.15466441
448.00   0.23846800   0.15675189
450.00   0.20576325   0.15885803
452.00   0.17291390   0.16098292
454.00   0.13991997   0.16312663
456.00   0.10678146   0.16528926
458.00   0.07349840   0.16747088
460.00   0.04007079   0.16967158
462.00   0.00649866   0.17189144
464.00  -0.02721799   0.17413053
466.00  -0.06107914   0.17638895
468.00  -0.09508477   0.17866677
470.00  -0.12923487   0.18096408
472.00  -0.16352942   0.18328096
474.00  -0.19796841   0.18561748
476.00  -0.23255183   0.18797375
478.00  -0.26727966   0.19034982
480.00  -0.30215188   0.19274580
482.00  -0.33716848   0.19516175
484.00  -0.37232944   0.19759777
486.00  -0.40763475   0.20005392
488.00  -0.44308440   0.20253031
490.00  -0.47867836   0.20502700
492.00  -0.51441662   0.20754408
494.00  -0.55029917   0.21008164
496.00  -0.58632599   0.21263974
498.00  -0.62249707   0.21521849
500.00  -0.65881239   0.21781795
502.00  -0.69527193   0.22043821
504.00  -0.73187568   0.22307935
506.00  -0.76862361   0.22574145
508.00  -0.80551573   0.22842460
510.00  -0.84255201   0.23112888
512.00  -0.87973242   0.23385436
514.00  -0.91705697   0.23660114
516.00  -0.95452563   0.23936929
518.00  -0.99213838   0.24215890
520.00  -1.02989521   0.24497004
522.00  -1.06779611   0.24780279
524.00  -1.10584104   0.25065725
526.00  -1.14403001   0.25353349
528.00  -1.18236299   0.25643160
530.00  -1.22083997   0.25935165
532.00  -1.25946093   0.26229372
534.00  -1.29822584   0.26525790
536.00  -1.33713471   0.26824428
538.00  -1.37618750   0.27125293
540.00  -1.41538420   0.27428392
542.00  -1.45472480   0.27733736
544.00  -1.49420928   0.28041331
546.00  -1.53383761   0.28351186
548.00  -1.57360979   0.28663309
550.00  -1.61352579   0.28977708
552.00  -1.65358561   0.29294392
554.00  -1.69378921   0.29613367
556.00  -1.73413659   0.29934644
558.00  -1.77462772   0.30258229
560.00  -1.81526259   0.30584131
562.00  -1.85604118   0.30912359
564.00  -1.89696348   0.31242919
566.00  -1.93802946   0.31575821
568.00  -1.97923910   0.31911072
570.00  -2.02059240   0.32248681
572.00  -2.06208933   0.32588655
574.00  -2.10372987   0.32931004
576.00  -2.14551401   0.33275734
578.00  -2.18744172   0.33622855
580.00  -2.22951299   0.33972374
582.00  -2.27172781   0.34324299
584.00  -2.31408614   0.34678639
586.00  -2.35658798   0.35035402
588.00  -2.39923331   0.35394596
590.00  -2.44202210   0.35756228
592.00  -2.48495434   0.36120307
594.00  -2.52803001   0.36486842
596.00  -2.57124909   0.36855840
598.00  -2.61461157   0.37227309
600.00  -2.65811742   0.37601258
602.00  -2.70176662   0.37977694
604.00  -2.74555916   0.38356626
606.00  -2.78949501   0.38738062
608.00  -2.83357416   0.39122010
610.00  -2.87779659   0.39508478
612.00  -2.92216228   0.39897474
614.00  -2.96667121   0.40289007
616.00  -3.01132336   0.40683083
618.00  -3.05611872   0.41079712
620.00  -3.10105725   0.41478902
622.00  -3.14613895   0.41880660
624.00  -3.19136379   0.42284995
626.00  -3.23673175   0.42691915
628.00  -3.28224281   0.43101428
630.00  -3.32789696   0.43513542
632.00  -3.37369418   0.43928265
634.00  -3.41963444   0.44345605
636.00  -3.46571772   0.44765570
638.00  -3.51194401   0.45188169
640.00  -3.55831328   0.45613409
642.00  -3.60482551   0.46041298
644.00  -3.65148069   0.46471845
646.00  -3.69827880   0.46905058
648.00  -3.74521980   0.47340944
650.00  -3.79230369   0.47779512
652.00  -3.83953045   0.48220770
654.00  -3.88690004   0.48664726
656.00  -3.93441246   0.49111388
658.00  -3.98206768   0.49560763
660.00  -4.02986567   0.50012861
662.00  -4.07780643   0.50467689
664.00  -4.12588993   0.50925255
666.00  -4.17411615   0.51385567
668.00  -4.22248506   0.51848634
670.00  -4.27099665   0.52314463
672.00  -4.31965089   0.52783062
674.00  -4.36844777   0.53254439
676.00  -4.41738727   0.53728604
678.00  -4.46646935   0.54205562
680.00  -4.51569401   0.54685323
682.00  -4.56506121   0.55167895
684.00  -4.61457095   0.55653285
686.00  -4.66422319   0.56141502
688.00  -4.71401791   0.56632553
690.00  -4.76395510   0.57126447
692.00  -4.81403473   0.57623192
694.00  -4.86425678   0.58122796
696.00  -4.91462123   0.58625266
698.00  -4.96512806   0.59130611
700.00  -5.01577724   0.59638839
702.00  -5.06656876   0.60149958
704.00  -5.11750259   0.60663976
706.00  -5.16857870   0.61180900
708.00  -5.21979709   0.61700739
710.00  -5.27115771   0.62223501
712.00  -5.32266057   0.62749194
714.00  -5.37430562   0.63277826
716.00  -5.42609285   0.63809404
718.00  -5.47802223   0.64343938
720.00  -5.53009375   0.64881434
722.00  -5.58230738   0.65421901
724.00  -5.63466310   0.65965347
726.00  -5.68716088   0.66511780
728.00  -5.73980071   0.67061207
730.00  -5.79258255   0.67613638
732.00  -5.84550640   0.68169079
734.00  -5.89857222   0.68727539
736.00  -5.95177999   0.69289025
738.00  -6.00512968   0.69853547
740.00  -6.05862129   0.70421111
742.00  -6.11225478   0.70991725
744.00  -6.16603012   0.71565399
746.00  -6.21994731   0.72142139
748.00  -6.27400630   0.72721953
750.00  -6.32820709   0.73304850
752.00  -6.38254964   0.73890838
754.00  -6.43703393   0.74479923
756.00  -6.49165994   0.75072116
758.00  -6.54642765   0.75667422
760.00  -6.60133703   0.76265851
762.00  -6.65638806   0.76867411
764.00  -6.71158071   0.77472108
766.00  -6.76691497   0.78079952
768.00  -6.82239080   0.78690950
770.00  -6.87800818   0.79305109
772.00  -6.93376710   0.79922439
774.00  -6.98966751   0.80542947
776.00  -7.04570941   0.81166640
778.00  -7.10189277   0.81793528
780.00  -7.15821756   0.82423617
782.00  -7.21468375   0.83056915
784.00  -7.27129133   0.83693431
786.00  -7.32804027   0.84333173
788.00  -7.38493054   0.84976148
790.00  -7.44196213   0.85622365
792.00  -7.49913500   0.86271830
794.00  -7.55644913   0.86924553
796.00  -7.61390450   0.87580541
798.00  -7.67150108   0.88239802
800.00  -7.72923884   0.88902344
802.00  -7.78711777   0.89568174
804.00  -7.84513784   0.90237302
806.00  -7.90329901   0.90909734
808.00  -7.96160128   0.91585478
810.00  -8.02004461   0.92264543
812.00  -8.07862897   0.92946936
814.00  -8.13735434   0.93632665
816.00  -8.19622071   0.94321738
818.00  -8.25522803   0.95014163
820.00  -8.31437629   0.95709948
822.00  -8.37366546   0.96409101
824.00  -8.43309551   0.97111629
826.00  -8.49266642   0.97817541
828.00  -8.55237817   0.98526844
830.00  -8.61223072   0.99239546
832.00  -8.67222406   0.99955656
834.00  -8.73235815   1.00675180
836.00  -8.79263297   1.01398127
838.00  -8.85304850   1.02124505
840.00  -8.91360470   1.02854321
842.00  -8.97430156   1.03587584
844.00  -9.03513904   1.04324301
846.00  -9.09611713   1.05064480
848.00  -9.15723579   1.05808128
850.00  -9.21849499   1.06555255
852.00  -9.27989472   1.07305867
854.00  -9.34143494   1.08059973
856.00  -9.40311563   1.08817580
858.00  -9.46493676   1.09578696
860.00  -9.52689831   1.10343330
862.00  -9.58900025   1.11111488
864.00  -9.65124255   1.11883178
866.00  -9.71362518   1.12658409
868.00  -9.77614813   1.13437189
870.00  -9.83881135   1.14219524
872.00  -9.90161483   1.15005424
874.00  -9.96455854   1.15794895
876.00 -10.02764245   1.16587945
878.00 -10.09086653   1.17384583
880.00 -10.15423076   1.18184817
882.00 -10.21773511   1.18988653
884.00 -10.28137955   1.19796100
886.00 -10.34516406   1.20607166
888.00 -10.40908860   1.21421858
890.00 -10.47315316   1.22240184
892.00 -10.53735769   1.23062152
894.00 -10.60170218   1.23887770
896.00 -10.66618660   1.24717045
898.00 -10.73081092   1.25549986
900.00 -10.79557512   1.26386600
902.00 -10.86047915   1.27226895
904.00 -10.92552301   1.28070878
906.00 -10.99070665   1.28918558
908.00 -11.05603005   1.29769942
910.00 -11.12149318   1.30625038
912.00 -11.18709603   1.31483854
914.00 -11.25283854   1.32346398
916.00 -11.31872071   1.33212677
918.00 -11.38474249   1.34082698
920.00 -11.45090387   1.34956471
922.00 -11.51720481   1.35834002
924.00 -11.58364529   1.36715300
926.00 -11.65022527   1.37600371
928.00 -11.71694473   1.38489225
930.00 -11.78380364   1.39381867
932.00 -11.85080198   1.40278308
934.00 -11.91793970   1.41178553
936.00 -11.98521679   1.42082611
938.00 -12.05263321   1.42990489
940.00 -12.12018894   1.43902196
942.00 -12.18788395   1.44817739
944.00 -12.25571820   1.45737125
946.00 -12.32369168   1.46660363
948.00 -12.39180434   1.47587459
950.00 -12.46005617   1.48518423
952.00 -12.52844712   1.49453261
954.00 -12.59697718   1.50391982
956.00 -12.66564632   1.51334592
958.00 -12.73445449   1.52281100
960.00 -12.80340168   1.53231514
962.00 -12.87248786   1.54185840
964.00 -12.94171299   1.55144088
966.00 -13.01107705   1.56106263
968.00 -13.08058000   1.57072375
970.00 -13.15022182   1.58042431
972.00 -13.22000248   1.59016438
974.00 -13.28992195   1.59994405
976.00 -13.35998019   1.60976338
978.00 -13.43017717   1.61962246
980.00 -13.50051288   1.62952136
982.00 -13.57098727   1.63946017
984.00 -13.64160032   1.64943894
986.00 -13.71235200   1.65945777
988.00 -13.78324227   1.66951673
990.00 -13.85427111   1.67961589
992.00 -13.92543849   1.68975534
994.00 -13.99674437   1.69993515
996.00 -14.06818873   1.71015539
998.00 -14.13977153   1.72041614
1000.00 -14.21149275   1.73071748
1002.00 -14.28335235   1.74105949
1004.00 -14.35535031   1.75144223
1006.00 -14.42748658   1.76186580
1008.00 -14.49976115   1.77233026
1010.00 -14.57217398   1.78283568
1012.00 -14.64472504   1.79338216
1014.00 -14.71741430   1.80396976
1016.00 -14.79024173   1.81459855
1018.00 -14.86320729   1.82526862
1020.00 -14.93631096   1.83598005
1022.00 -15.00955270   1.84673290
1024.00 -15.08293249   1.85752725
1026.00 -15.15645029   1.86836318
1028.00 -15.23010607   1.87924077
1030.00 -15.30389981   1.89016009
1032.00 -15.37783146   1.90112122
1034.00 -15.45190099   1.91212424
1036.00 -15.52610838   1.92316921
1038.00 -15.60045360   1.93425621
1040.00 -15.67493661   1.94538533
1042.00 -15.74955738   1.95655664
1044.00 -15.82431587   1.96777021
1046.00 -15.89921207   1.97902612
1048.00 -15.97424592   1.99032444
1050.00 -16.04941742   2.00166525
1052.00 -16.12472651   2.01304863
1054.00 -16.20017317   2.02447465
1056.00 -16.27575737   2.03594339
1058.00 -16.35147907   2.04745492
1060.00 -16.42733825   2.05900932
1062.00 -16.50333487   2.07060667
1064.00 -16.57946889   2.08224703
1066.00 -16.65574029   2.09393049
1068.00 -16.73214903   2.10565712
1070.00 -16.80869509   2.11742699
1072.00 -16.88537842   2.12924019
1074.00 -16.96219900   2.14109678
1076.00 -17.03915679   2.15299685
1078.00 -17.11625176   2.16494046
1080.00 -17.19348388   2.17692770
1082.00 -17.27085312   2.18895863
1084.00 -17.34835944   2.20103334
1086.00 -17.42600280   2.21315189
1088.00 -17.50378319   2.22531437
1090.00 -17.58170055   2.23752085
1092.00 -17.65975487   2.24977140
1094.00 -17.73794610   2.26206610
1096.00 -17.81627422   2.27440502
1098.00 -17.89473918   2.28678824
1100.00 -17.97334097   2.29921584
1102.00 -18.05207954   2.31168788
1104.00 -18.13095486   2.32420445
1106.00 -18.20996689   2.33676561
1108.00 -18.28911561   2.34937145
1110.00 -18.36840098   2.36202204
1112.00 -18.44782297   2.37471745
1114.00 -18.52738154   2.38745776
1116.00 -18.60707666   2.40024304
1118.00 -18.68690830   2.41307336
1120.00 -18.76687641   2.42594881
1122.00 -18.84698098   2.43886946
1124.00 -18.92722195   2.45183537
1126.00 -19.00759931   2.46484664
1128.00 -19.08811301   2.47790332
1130.00 -19.16876303   2.49100549
1132.00 -19.24954932   2.50415324
1134.00 -19.33047186   2.51734663
1136.00 -19.41153060   2.53058573
1138.00 -19.49272552   2.54387063
1140.00 -19.57405658   2.55720139
1142.00 -19.65552375   2.57057810
1144.00 -19.73712699   2.58400082
1146.00 -19.81886626   2.59746963
1148.00 -19.90074154   2.61098460
1150.00 -19.98275279   2.62454581
1152.00 -20.06489997   2.63815333
1154.00 -20.14718305   2.65180724
1156.00 -20.22960199   2.66550761
1158.00 -20.31215676   2.67925451
1160.00 -20.39484732   2.69304802
1162.00 -20.47767365   2.70688821
1164.00 -20.56063569   2.72077516
1166.00 -20.64373343   2.73470894
1168.00 -20.72696682   2.74868962
1170.00 -20.81033583   2.76271728
1172.00 -20.89384042   2.77679199
1174.00 -20.97748056   2.79091382
1176.00 -21.06125622   2.80508286
1178.00 -21.14516735   2.81929916
1180.00 -21.22921392   2.83356282
1182.00 -21.31339591   2.84787389
1184.00 -21.39771326   2.86223245
1186.00 -21.48216595   2.87663859
1188.00 -21.56675394   2.89109236
1190.00 -21.65147719   2.90559385
1192.00 -21.73633567   2.92014313
1194.00 -21.82132934   2.93474027
1196.00 -21.90645818   2.94938534
1198.00 -21.99172213   2.96407842
1200.00 -22.07712117   2.97881958
1202.00 -22.16265525   2.99360890
1204.00 -22.24832435   3.00844644
1206.00 -22.33412843   3.02333229
1208.00 -22.42006745   3.03826651
1210.00 -22.50614137   3.05324917
1212.00 -22.59235017   3.06828036
1214.00 -22.67869379   3.08336014
1216.00 -22.76517221   3.09848859
1218.00 -22.85178539   3.11366578
1220.00 -22.93853329   3.12889178
1222.00 -23.02541588   3.14416667
1224.00 -23.11243312   3.15949052
1226.00 -23.19958498   3.17486340
1228.00 -23.28687140   3.19028538
1230.00 -23.37429237   3.20575654
1232.00 -23.46184785   3.22127695
1234.00 -23.54953778   3.23684669
1236.00 -23.63736215   3.25246582
1238.00 -23.72532091   3.26813441
1240.00 -23.81341403   3.28385255
1242.00 -23.90164147   3.29962031
1244.00 -23.99000318   3.31543775
1246.00 -24.07849914   3.33130495
1248.00 -24.16712931   3.34722198
1250.00 -24.25589365   3.36318892
1252.00 -24.34479212   3.37920583
1254.00 -24.43382469   3.39527279
1256.00 -24.52299131   3.41138987
1258.00 -24.61229196   3.42755715
1260.00 -24.70172658   3.44377469
1262.00 -24.79129516   3.46004257
1264.00 -24.88099764   3.47636086
1266.00 -24.97083399   3.49272963
1268.00 -25.06080417   3.50914896
1270.00 -25.15090815   3.52561892
1272.00 -25.24114589   3.54213958
1274.00 -25.33151734   3.55871100
1276.00 -25.42202248   3.57533327
1278.00 -25.51266126   3.59200646
1280.00 -25.60343365   3.60873063
1282.00 -25.69433960   3.62550587
1284.00 -25.78537908   3.64233223
1286.00 -25.87655205   3.65920980
1288.00 -25.96785848   3.67613864
1290.00 -26.05929832   3.69311883
1292.00 -26.15087154   3.71015044
1294.00 -26.24257809   3.72723353
1296.00 -26.33441795   3.74436819
1298.00 -26.42639106   3.76155449
