wavelength(nm)         real         imag
100.00   3.74557112   0.00147571
102.00   3.73933278   0.00156603
104.00   3.73297097   0.00165996
106.00   3.72648567   0.00175757
108.00   3.71987689   0.00185894
110.00   3.71314464   0.00196413
112.00   3.70628891   0.00207322
114.00   3.69930972   0.00218627
116.00   3.69220705   0.00230335
118.00   3.68498093   0.00242455
120.00   3.67763134   0.00254992
122.00   3.67015830   0.00267954
124.00   3.66256181   0.00281348
126.00   3.65484186   0.00295181
128.00   3.64699847   0.00309460
130.00   3.63903163   0.00324193
132.00   3.63094135   0.00339385
134.00   3.62272764   0.00355045
136.00   3.61439050   0.00371179
138.00   3.60592992   0.00387795
140.00   3.59734592   0.00404899
142.00   3.58863850   0.00422499
144.00   3.57980766   0.00440601
146.00   3.57085340   0.00459213
148.00   3.56177574   0.00478342
150.00   3.55257467   0.00497995
152.00   3.54325020   0.00518178
154.00   3.53380233   0.00538900
156.00   3.52423106   0.00560167
158.00   3.51453641   0.00581986
160.00   3.50471837   0.00604364
162.00   3.49477695   0.00627308
164.00   3.48471215   0.00650826
166.00   3.47452398   0.00674924
168.00   3.46421244   0.00699610
170.00   3.45377754   0.00724890
172.00   3.44321928   0.00750772
174.00   3.43253766   0.00777263
176.00   3.42173270   0.00804369
178.00   3.41080439   0.00832098
180.00   3.39975274   0.00860457
182.00   3.38857775   0.00889453
184.00   3.37727944   0.00919093
186.00   3.36585780   0.00949384
188.00   3.35431284   0.00980333
190.00   3.34264456   0.01011947
192.00   3.33085297   0.01044234
194.00   3.31893808   0.01077199
196.00   3.30689989   0.01110852
198.00   3.29473841   0.01145197
200.00   3.28245363   0.01180243
202.00   3.27004557   0.01215997
204.00   3.25751424   0.01252465
206.00   3.24485963   0.01289655
208.00   3.23208175   0.01327574
210.00   3.21918061   0.01366228
212.00   3.20615621   0.01405625
214.00   3.19300857   0.01445772
216.00   3.17973768   0.01486676
218.00   3.16634355   0.01528344
220.00   3.15282619   0.01570783
222.00   3.13918560   0.01614000
224.00   3.12542179   0.01658003
226.00   3.11153476   0.01702797
228.00   3.09752452   0.01748391
230.00   3.08339109   0.01794791
232.00   3.06913445   0.01842004
234.00   3.05475463   0.01890038
236.00   3.04025162   0.01938900
238.00   3.02562543   0.01988595
240.00   3.01087607   0.02039133
242.00   2.99600355   0.02090519
244.00   2.98100787   0.02142760
246.00   2.96588903   0.02195864
248.00   2.95064706   0.02249838
250.00   2.93528194   0.02304689
252.00   2.91979369   0.02360424
254.00   2.90418231   0.02417049
256.00   2.88844782   0.02474573
258.00   2.87259022   0.02533001
260.00   2.85660951   0.02592341
262.00   2.84050570   0.02652601
264.00   2.82427881   0.02713786
266.00   2.80792883   0.02775904
268.00   2.79145577   0.02838963
270.00   2.77485964   0.02902969
272.00   2.75814046   0.02967929
274.00   2.74129822   0.03033850
276.00   2.72433293   0.03100740
278.00   2.70724460   0.03168605
280.00   2.69003324   0.03237452
282.00   2.67269886   0.03307289
284.00   2.65524145   0.03378122
286.00   2.63766104   0.03449959
288.00   2.61995763   0.03522806
290.00   2.60213122   0.03596671
292.00   2.58418183   0.03671560
294.00   2.56610946   0.03747481
296.00   2.54791412   0.03824441
298.00   2.52959581   0.03902446
300.00   2.51115456   0.03981504
302.00   2.49259035   0.04061621
304.00   2.47390321   0.04142805
306.00   2.45509313   0.04225063
308.00   2.43616014   0.04308402
310.00   2.41710423   0.04392829
312.00   2.39792542   0.04478350
314.00   2.37862371   0.04564973
316.00   2.35919911   0.04652705
318.00   2.33965163   0.04741553
320.00   2.31998128   0.04831524
322.00   2.30018806   0.04922625
324.00   2.28027200   0.05014863
326.00   2.26023308   0.05108244
328.00   2.24007133   0.05202777
330.00   2.21978676   0.05298468
332.00   2.19937936   0.05395323
334.00   2.17884915   0.05493351
336.00   2.15819614   0.05592558
338.00   2.13742034   0.05692950
340.00   2.11652176   0.05794536
342.00   2.09550040   0.05897322
344.00   2.07435628   0.06001315
346.00   2.05308941   0.06106522
348.00   2.03169978   0.06212950
350.00   2.01018742   0.06320606
352.00   1.98855233   0.06429497
354.00   1.96679453   0.06539631
356.00   1.94491401   0.06651013
358.00   1.92291080   0.06763652
360.00   1.90078490   0.06877553
362.00   1.87853632   0.06992725
364.00   1.85616507   0.07109174
366.00   1.83367115   0.07226907
368.00   1.81105459   0.07345931
370.00   1.78831539   0.07466253
372.00   1.76545356   0.07587880
374.00   1.74246910   0.07710820
376.00   1.71936204   0.07835078
378.00   1.69613237   0.07960663
380.00   1.67278012   0.08087581
382.00   1.64930528   0.08215838
384.00   1.62570788   0.08345443
386.00   1.60198791   0.08476402
388.00   1.57814540   0.08608722
390.00   1.55418035   0.08742410
392.00   1.53009277   0.08877473
394.00   1.50588267   0.09013918
396.00   1.48155006   0.09151752
398.00   1.45709496   0.09290981
400.00   1.43251737   0.09431614
402.00   1.40781731   0.09573657
404.00   1.38299478   0.09717117
406.00   1.35804980   0.09862000
408.00   1.33298237   0.10008315
410.00   1.30779252   0.10156067
412.00   1.28248024   0.10305264
414.00   1.25704555   0.10455913
416.00   1.23148847   0.10608020
418.00   1.20580899   0.10761594
420.00   1.18000714   0.10916640
422.00   1.15408293   0.11073166
424.00   1.12803636   0.11231178
426.00   1.10186745   0.11390684
428.00   1.07557621   0.11551691
430.00   1.04916265   0.11714205
432.00   1.02262678   0.11878234
434.00   0.99596862   0.12043784
436.00   0.96918817   0.12210863
438.00   0.94228544   0.12379477
440.00   0.91526046   0.12549634
442.00   0.88811322   0.12721340
444.00   0.86084375   0.12894602
446.00   0.83345205   0.13069427
448.00   0.80593814   0.13245823
450.00   0.77830203   0.13423796
452.00   0.75054373   0.13603352
454.00   0.72266324   0.13784500
456.00   0.69466060   0.13967247
458.00   0.66653580   0.14151598
460.00   0.63828886   0.14337560
462.00   0.60991979   0.14525142
464.00   0.58142860   0.14714350
466.00   0.55281531   0.14905190
468.00   0.52407993   0.15097671
470.00   0.49522246   0.15291797
472.00   0.46624294   0.15487578
474.00   0.43714135   0.15685019
476.00   0.40791773   0.15884127
478.00   0.37857208   0.16084910
480.00   0.34910441   0.16287374
482.00   0.31951474   0.16491527
484.00   0.28980308   0.16697374
486.00   0.25996944   0.16904924
488.00   0.23001384   0.17114183
490.00   0.19993629   0.17325158
492.00   0.16973680   0.17537857
494.00   0.13941538   0.17752284
496.00   0.10897206   0.17968449
498.00   0.07840683   0.18186358
500.00   0.04771972   0.18406017
502.00   0.01691074   0.18627434
504.00  -0.01402010   0.18850615
506.00  -0.04507278   0.19075568
508.00  -0.07624730   0.19302299
510.00  -0.10754363   0.19530815
512.00  -0.13896177   0.19761124
514.00  -0.17050170   0.19993231
516.00  -0.20216340   0.20227145
518.00  -0.23394687   0.20462872
520.00  -0.26585209   0.20700418
522.00  -0.29787904   0.20939792
524.00  -0.33002771   0.21180999
526.00  -0.36229809   0.21424046
528.00  -0.39469016   0.21668941
530.00  -0.42720392   0.21915691
532.00  -0.45983933   0.22164302
534.00  -0.49259640   0.22414781
536.00  -0.52547511   0.22667135
538.00  -0.55847543   0.22921371
540.00  -0.59159737   0.23177496
542.00  -0.62484090   0.23435517
544.00  -0.65820601   0.23695440
546.00  -0.69169268   0.23957273
548.00  -0.72530090   0.24221023
550.00  -0.75903066   0.24486696
552.00  -0.79288193   0.24754299
554.00  -0.82685472   0.25023840
556.00  -0.86094899   0.25295324
558.00  -0.89516475   0.25568760
560.00  -0.92950196   0.25844153
562.00  -0.96396062   0.26121511
564.00  -0.99854071   0.26400841
566.00  -1.03324222   0.26682149
568.00  -1.06806513   0.26965442
570.00  -1.10300942   0.27250728
572.00  -1.13807509   0.27538013
574.00  -1.17326211   0.27827304
576.00  -1.20857048   0.28118607
578.00  -1.24400017   0.28411931
580.00  -1.27955116   0.28707281
582.00  -1.31522346   0.29004664
584.00  -1.35101703   0.29304088
586.00  -1.38693187   0.29605559
588.00  -1.42296795   0.29909084
590.00  -1.45912527   0.30214670
592.00  -1.49540380   0.30522324
594.00  -1.53180353   0.30832052
596.00  -1.56832445   0.31143862
598.00  -1.60496654   0.31457760
600.00  -1.64172978   0.31773754
602.00  -1.67861416   0.32091850
604.00  -1.71561966   0.32412054
606.00  -1.75274626   0.32734375
608.00  -1.78999396   0.33058818
610.00  -1.82736272   0.33385390
612.00  -1.86485255   0.33714099
614.00  -1.90246341   0.34044951
616.00  -1.94019530   0.34377953
618.00  -1.97804820   0.34713112
620.00  -2.01602208   0.35050435
622.00  -2.05411695   0.35389928
624.00  -2.09233277   0.35731599
626.00  -2.13066953   0.36075453
628.00  -2.16912722   0.36421499
630.00  -2.20770581   0.36769743
632.00  -2.24640530   0.37120191
634.00  -2.28522566   0.37472851
636.00  -2.32416688   0.37827730
638.00  -2.36322895   0.38184833
640.00  -2.40241183   0.38544169
642.00  -2.44171553   0.38905743
644.00  -2.48114001   0.39269564
646.00  -2.52068527   0.39635636
648.00  -2.56035128   0.40003968
650.00  -2.60013804   0.40374566
652.00  -2.64004551   0.40747437
654.00  -2.68007369   0.41122588
656.00  -2.72022255   0.41500025
658.00  -2.76049209   0.41879756
660.00  -2.80088228   0.42261787
662.00  -2.84139310   0.42646125
664.00  -2.88202454   0.43032777
666.00  -2.92277658   0.43421749
668.00  -2.96364920   0.43813049
670.00  -3.00464238   0.44206683
672.00  -3.04575612   0.44602658
674.00  -3.08699038   0.45000980
676.00  -3.12834515   0.45401658
678.00  -3.16982041   0.45804696
680.00  -3.21141615   0.46210103
682.00  -3.25313235   0.46617885
684.00  -3.29496898   0.47028049
686.00  -3.33692604   0.47440601
688.00  -3.37900350   0.47855549
690.00  -3.42120134   0.48272898
692.00  -3.46351955   0.48692657
694.00  -3.50595811   0.49114831
696.00  -3.54851699   0.49539428
698.00  -3.59119619   0.49966454
700.00  -3.63399568   0.50395916
702.00  -3.67691544   0.50827820
704.00  -3.71995546   0.51262175
706.00  -3.76311572   0.51698985
708.00  -3.80639620   0.52138259
710.00  -3.84979687   0.52580002
712.00  -3.89331773   0.53024223
714.00  -3.93695875   0.53470926
716.00  -3.98071991   0.53920120
718.00  -4.02460119   0.54371810
720.00  -4.06860258   0.54826005
722.00  -4.11272406   0.55282709
724.00  -4.15696560   0.55741931
726.00  -4.20132720   0.56203677
728.00  -4.24580882   0.56667953
730.00  -4.29041045   0.57134767
732.00  -4.33513207   0.57604125
734.00  -4.37997366   0.58076034
736.00  -4.42493520   0.58550500
738.00  -4.47001668   0.59027531
740.00  -4.51521807   0.59507133
742.00  -4.56053935   0.59989313
744.00  -4.60598051   0.60474078
746.00  -4.65154152   0.60961433
748.00  -4.69722236   0.61451387
750.00  -4.74302302   0.61943946
752.00  -4.78894348   0.62439116
754.00  -4.83498371   0.62936905
756.00  -4.88114369   0.63437318
758.00  -4.92742341   0.63940363
760.00  -4.97382285   0.64446047
762.00  -5.02034198   0.64954375
764.00  -5.06698079   0.65465356
766.00  -5.11373925   0.65978995
768.00  -5.16061735   0.66495299
770.00  -5.20761506   0.67014275
772.00  -5.25473237   0.67535930
774.00  -5.30196925   0.68060271
776.00  -5.34932568   0.68587303
778.00  -5.39680165   0.69117034
780.00  -5.44439713   0.69649471
782.00  -5.49211210   0.70184620
784.00  -5.53994655   0.70722488
786.00  -5.58790044   0.71263082
788.00  -5.63597377   0.71806407
790.00  -5.68416651   0.72352472
792.00  -5.73247864   0.72901283
794.00  -5.78091013   0.73452846
796.00  -5.82946097   0.74007167
798.00  -5.87813114   0.74564255
800.00  -5.92692061   0.75124115
802.00  -5.97582937   0.75686754
804.00  -6.02485740   0.76252179
806.00  -6.07400466   0.76820396
808.00  -6.12327115   0.77391413
810.00  -6.17265683   0.77965235
812.00  -6.22216170   0.78541869
814.00  -6.27178572   0.79121323
816.00  -6.32152888   0.79703603
818.00  -6.37139115   0.80288715
820.00  -6.42137251   0.80876666
822.00  -6.47147295   0.81467463
824.00  -6.52169244   0.82061112
826.00  -6.57203095   0.82657620
828.00  -6.62248848   0.83256995
830.00  -6.67306499   0.83859241
832.00  -6.72376046   0.84464367
834.00  -6.77457487   0.85072378
836.00  -6.82550820   0.85683281
838.00  -6.87656043   0.86297084
840.00  -6.92773154   0.86913792
842.00  -6.97902150   0.87533413
844.00  -7.03043029   0.88155952
846.00  -7.08195789   0.88781417
848.00  -7.13360428   0.89409814
850.00  -7.18536944   0.90041150
852.00  -7.23725334   0.90675431
854.00  -7.28925596   0.91312664
856.00  -7.34137727   0.91952856
858.00  -7.39361727   0.92596013
860.00  -7.44597591   0.93242142
862.00  -7.49845319   0.93891250
864.00  -7.55104908   0.94543343
866.00  -7.60376355   0.95198427
868.00  -7.65659659   0.95856510
870.00  -7.70954817   0.96517598
872.00  -7.76261826   0.97181697
874.00  -7.81580685   0.97848815
876.00  -7.86911392   0.98518957
878.00  -7.92253943   0.99192131
880.00  -7.97608337   0.99868343
882.00  -8.02974571   1.00547599
884.00  -8.08352643   1.01229907
886.00  -8.13742551   1.01915272
888.00  -8.19144293   1.02603702
890.00  -8.24557865   1.03295202
892.00  -8.29983267   1.03989781
894.00  -8.35420495   1.04687443
896.00  -8.40869547   1.05388196
898.00  -8.46330420   1.06092046
900.00  -8.51803114   1.06799000
902.00  -8.57287624   1.07509065
904.00  -8.62783949   1.08222246
906.00  -8.68292087   1.08938552
908.00  -8.73812034   1.09657987
910.00  -8.79343790   1.10380559
912.00  -8.84887350   1.11106274
914.00  -8.90442714   1.11835139
916.00  -8.96009878   1.12567161
918.00  -9.01588840   1.13302345
920.00  -9.07179598   1.14040699
922.00  -9.12782150   1.14782229
924.00  -9.18396492   1.15526942
926.00  -9.24022623   1.16274843
928.00  -9.29660540   1.17025941
930.00  -9.35310241   1.17780240
932.00  -9.40971723   1.18537749
934.00  -9.46644985   1.19298473
936.00  -9.52330022   1.20062418
938.00  -9.58026834   1.20829592
940.00  -9.63735417   1.21600001
942.00  -9.69455770   1.22373651
944.00  -9.75187889   1.23150550
946.00  -9.80931773   1.23930703
948.00  -9.86687418   1.24714116
950.00  -9.92454823   1.25500798
952.00  -9.98233984   1.26290753
954.00 -10.04024900   1.27083989
956.00 -10.09827568   1.27880513
958.00 -10.15641986   1.28680329
960.00 -10.21468150   1.29483446
962.00 -10.27306059   1.30289870
964.00 -10.33155710   1.31099606
966.00 -10.39017100   1.31912662
968.00 -10.44890228   1.32729045
970.00 -10.50775089   1.33548760
972.00 -10.56671683   1.34371814
974.00 -10.62580006   1.35198213
976.00 -10.68500057   1.36027965
978.00 -10.74431831   1.36861076
980.00 -10.80375328   1.37697551
982.00 -10.86330543   1.38537398
984.00 -10.92297476   1.39380623
986.00 -10.98276123   1.40227232
988.00 -11.04266481   1.41077233
990.00 -11.10268549   1.41930631
992.00 -11.16282323   1.42787433
994.00 -11.22307801   1.43647645
996.00 -11.28344981   1.44511274
998.00 -11.34393859   1.45378327
1000.00 -11.40454434   1.46248809
1002.00 -11.46526702   1.47122727
1004.00 -11.52610662   1.48000089
1006.00 -11.58706310   1.48880899
1008.00 -11.64813644   1.49765165
1010.00 -11.70932661   1.50652893
1012.00 -11.77063359   1.51544089
1014.00 -11.83205735   1.52438761
1016.00 -11.89359786   1.53336914
1018.00 -11.95525510   1.54238554
1020.00 -12.01702905   1.55143689
1022.00 -12.07891967   1.56052325
1024.00 -12.14092694   1.56964468
1026.00 -12.20305083   1.57880124
1028.00 -12.26529132   1.58799300
1030.00 -12.32764838   1.59722003
1032.00 -12.39012199   1.60648238
1034.00 -12.45271211   1.61578013
1036.00 -12.51541872   1.62511334
1038.00 -12.57824179   1.63448206
1040.00 -12.64118130   1.64388637
1042.00 -12.70423722   1.65332633
1044.00 -12.76740953   1.66280200
1046.00 -12.83069819   1.67231345
1048.00 -12.89410318   1.68186074
1050.00 -12.95762447   1.69144394
1052.00 -13.02126204   1.70106310
1054.00 -13.08501585   1.71071830
1056.00 -13.14888589   1.72040959
1058.00 -13.21287212   1.73013705
1060.00 -13.27697452   1.73990073
1062.00 -13.34119306   1.74970070
1064.00 -13.40552771   1.75953702
1066.00 -13.46997844   1.76940976
1068.00 -13.53454524   1.77931898
1070.00 -13.59922806   1.78926474
1072.00 -13.66402689   1.79924710
1074.00 -13.72894169   1.80926614
1076.00 -13.79397244   1.81932192
1078.00 -13.85911911   1.82941449
1080.00 -13.92438167   1.83954392
1082.00 -13.98976009   1.84971028
1084.00 -14.05525436   1.85991363
1086.00 -14.12086443   1.87015403
1088.00 -14.18659028   1.88043155
1090.00 -14.25243189   1.89074625
1092.00 -14.31838922   1.90109819
1094.00 -14.38446225   1.91148744
1096.00 -14.45065095   1.92191405
1098.00 -14.51695529   1.93237810
1100.00 -14.58337524   1.94287965
1102.00 -14.64991078   1.95341876
1104.00 -14.71656187   1.96399549
1106.00 -14.78332850   1.97460990
1108.00 -14.85021062   1.98526207
1110.00 -14.91720822   1.99595205
1112.00 -14.98432126   2.00667990
1114.00 -15.05154971   2.01744570
1116.00 -15.11889355   2.02824949
1118.00 -15.18635275   2.03909136
1120.00 -15.25392728   2.04997135
1122.00 -15.32161711   2.06088953
1124.00 -15.38942221   2.07184597
1126.00 -15.45734255   2.08284072
1128.00 -15.52537811   2.09387386
1130.00 -15.59352886   2.10494544
1132.00 -15.66179476   2.11605552
1134.00 -15.73017579   2.12720418
1136.00 -15.79867192   2.13839146
1138.00 -15.86728312   2.14961745
1140.00 -15.93600936   2.16088219
1142.00 -16.00485062   2.17218575
1144.00 -16.07380685   2.18352820
1146.00 -16.14287804   2.19490959
1148.00 -16.21206416   2.20632999
1150.00 -16.28136517   2.21778946
1152.00 -16.35078105   2.22928806
1154.00 -16.42031176   2.24082587
1156.00 -16.48995728   2.25240293
1158.00 -16.55971758   2.26401932
1160.00 -16.62959263   2.27567508
1162.00 -16.69958239   2.28737030
1164.00 -16.76968685   2.29910503
1166.00 -16.83990596   2.31087933
1168.00 -16.91023971   2.32269326
1170.00 -16.98068805   2.33454689
1172.00 -17.05125097   2.34644028
1174.00 -17.12192843   2.35837349
1176.00 -17.19272039   2.37034658
1178.00 -17.26362684   2.38235962
1180.00 -17.33464774   2.39441267
1182.00 -17.40578307   2.40650579
1184.00 -17.47703278   2.41863904
1186.00 -17.54839685   2.43081249
1188.00 -17.61987526   2.44302620
1190.00 -17.69146796   2.45528022
1192.00 -17.76317494   2.46757463
1194.00 -17.83499616   2.47990948
1196.00 -17.90693159   2.49228483
1198.00 -17.97898119   2.50470076
1200.00 -18.05114495   2.51715731
1202.00 -18.12342283   2.52965455
1204.00 -18.19581479   2.54219255
1206.00 -18.26832082   2.55477136
1208.00 -18.34094087   2.56739105
1210.00 -18.41367491   2.58005168
1212.00 -18.48652293   2.59275331
1214.00 -18.55948488   2.60549601
1216.00 -18.63256073   2.61827982
1218.00 -18.70575046   2.63110483
1220.00 -18.77905404   2.64397108
1222.00 -18.85247142   2.65687864
1224.00 -18.92600259   2.66982757
1226.00 -18.99964750   2.68281794
1228.00 -19.07340614   2.69584980
1230.00 -19.14727847   2.70892321
1232.00 -19.22126445   2.72203824
1234.00 -19.29536406   2.73519496
1236.00 -19.36957727   2.74839341
1238.00 -19.44390404   2.76163366
1240.00 -19.51834434   2.77491578
1242.00 -19.59289815   2.78823982
1244.00 -19.66756542   2.80160585
1246.00 -19.74234614   2.81501392
1248.00 -19.81724026   2.82846411
1250.00 -19.89224775   2.84195646
1252.00 -19.96736860   2.85549105
1254.00 -20.04260275   2.86906792
1256.00 -20.11795019   2.88268716
1258.00 -20.19341088   2.89634880
1260.00 -20.26898478   2.91005292
1262.00 -20.34467187   2.92379958
1264.00 -20.42047212   2.93758884
1266.00 -20.49638549   2.95142075
1268.00 -20.57241195   2.96529539
1270.00 -20.64855146   2.97921280
1272.00 -20.72480401   2.99317306
1274.00 -20.80116955   3.00717622
1276.00 -20.87764806   3.02122234
1278.00 -20.95423949   3.03531149
1280.00 -21.03094382   3.04944373
1282.00 -21.10776103   3.06361911
1284.00 -21.18469106   3.07783770
1286.00 -21.26173390   3.09209955
1288.00 -21.33888951   3.10640473
1290.00 -21.41615785   3.12075330
1292.00 -21.49353891   3.13514533
1294.00 -21.57103263   3.14958086
1296.00 -21.64863900   3.16405996
1298.00 -21.72635797   3.17858270
