wavelength(nm)         real         imag
100.00   3.80221755   0.00093440
102.00   3.79826751   0.00099159
104.00   3.79423929   0.00105107
106.00   3.79013288   0.00111287
108.00   3.78594828   0.00117706
110.00   3.78168550   0.00124366
112.00   3.77734454   0.00131273
114.00   3.77292540   0.00138432
116.00   3.76842809   0.00145846
118.00   3.76385259   0.00153519
120.00   3.75919893   0.00161458
122.00   3.75446709   0.00169665
124.00   3.74965708   0.00178146
126.00   3.74476891   0.00186905
128.00   3.73980257   0.00195946
130.00   3.73475807   0.00205275
132.00   3.72963541   0.00214894
134.00   3.72443458   0.00224810
136.00   3.71915561   0.00235026
138.00   3.71379848   0.00245547
140.00   3.70836319   0.00256377
142.00   3.70284976   0.00267521
144.00   3.69725818   0.00278983
146.00   3.69158846   0.00290768
148.00   3.68584060   0.00302880
150.00   3.68001459   0.00315324
152.00   3.67411045   0.00328104
154.00   3.66812818   0.00341225
156.00   3.66206777   0.00354691
158.00   3.65592924   0.00368506
160.00   3.64971258   0.00382676
162.00   3.64341779   0.00397204
164.00   3.63704489   0.00412095
166.00   3.63059386   0.00427354
168.00   3.62406473   0.00442984
170.00   3.61745747   0.00458992
172.00   3.61077212   0.00475380
174.00   3.60400865   0.00492153
176.00   3.59716708   0.00509316
178.00   3.59024741   0.00526874
180.00   3.58324964   0.00544831
182.00   3.57617378   0.00563191
184.00   3.56901983   0.00581958
186.00   3.56178779   0.00601138
188.00   3.55447766   0.00620735
190.00   3.54708945   0.00640752
192.00   3.53962317   0.00661196
194.00   3.53207881   0.00682069
196.00   3.52445637   0.00703377
198.00   3.51675587   0.00725125
200.00   3.50897730   0.00747315
202.00   3.50112068   0.00769954
204.00   3.49318599   0.00793045
206.00   3.48517325   0.00816593
208.00   3.47708245   0.00840603
210.00   3.46891361   0.00865079
212.00   3.46066673   0.00890024
214.00   3.45234180   0.00915445
216.00   3.44393884   0.00941345
218.00   3.43545784   0.00967729
220.00   3.42689881   0.00994600
222.00   3.41826176   0.01021965
224.00   3.40954669   0.01049827
226.00   3.40075360   0.01078190
228.00   3.39188249   0.01107059
230.00   3.38293337   0.01136439
232.00   3.37390625   0.01166334
234.00   3.36480112   0.01196749
236.00   3.35561800   0.01227687
238.00   3.34635688   0.01259154
240.00   3.33701777   0.01291153
242.00   3.32760067   0.01323690
244.00   3.31810559   0.01356769
246.00   3.30853253   0.01390394
248.00   3.29888150   0.01424570
250.00   3.28915250   0.01459301
252.00   3.27934553   0.01494591
254.00   3.26946060   0.01530446
256.00   3.25949772   0.01566869
258.00   3.24945688   0.01603865
260.00   3.23933809   0.01641438
262.00   3.22914136   0.01679594
264.00   3.21886669   0.01718336
266.00   3.20851409   0.01757668
268.00   3.19808355   0.01797596
270.00   3.18757509   0.01838124
272.00   3.17698871   0.01879256
274.00   3.16632441   0.01920996
276.00   3.15558220   0.01963350
278.00   3.14476209   0.02006321
280.00   3.13386407   0.02049915
282.00   3.12288815   0.02094135
284.00   3.11183434   0.02138985
286.00   3.10070264   0.02184471
288.00   3.08949306   0.02230597
290.00   3.07820560   0.02277367
292.00   3.06684027   0.02324786
294.00   3.05539707   0.02372859
296.00   3.04387600   0.02421588
298.00   3.03227708   0.02470980
300.00   3.02060030   0.02521039
302.00   3.00884568   0.02571768
304.00   2.99701321   0.02623173
306.00   2.98510291   0.02675258
308.00   2.97311477   0.02728027
310.00   2.96104880   0.02781485
312.00   2.94890502   0.02835636
314.00   2.93668341   0.02890484
316.00   2.92438400   0.02946035
318.00   2.91200678   0.03002293
320.00   2.89955176   0.03059261
322.00   2.88701894   0.03116945
324.00   2.87440833   0.03175349
326.00   2.86171994   0.03234477
328.00   2.84895377   0.03294334
330.00   2.83610983   0.03354924
332.00   2.82318812   0.03416252
334.00   2.81018865   0.03478322
336.00   2.79711142   0.03541138
338.00   2.78395644   0.03604705
340.00   2.77072372   0.03669028
342.00   2.75741325   0.03734111
344.00   2.74402506   0.03799958
346.00   2.73055914   0.03866574
348.00   2.71701549   0.03933963
350.00   2.70339413   0.04002129
352.00   2.68969506   0.04071078
354.00   2.67591829   0.04140813
356.00   2.66206382   0.04211339
358.00   2.64813166   0.04282660
360.00   2.63412181   0.04354781
362.00   2.62003429   0.04427707
364.00   2.60586909   0.04501441
366.00   2.59162622   0.04575988
368.00   2.57730570   0.04651352
370.00   2.56290751   0.04727539
372.00   2.54843169   0.04804552
374.00   2.53387821   0.04882395
376.00   2.51924711   0.04961074
378.00   2.50453837   0.05040593
380.00   2.48975202   0.05120956
382.00   2.47488804   0.05202167
384.00   2.45994646   0.05284231
386.00   2.44492727   0.05367153
388.00   2.42983049   0.05450936
390.00   2.41465611   0.05535585
392.00   2.39940415   0.05621106
394.00   2.38407462   0.05707501
396.00   2.36866752   0.05794775
398.00   2.35318285   0.05882934
400.00   2.33762063   0.05971981
402.00   2.32198085   0.06061921
404.00   2.30626354   0.06152758
406.00   2.29046868   0.06244496
408.00   2.27459630   0.06337141
410.00   2.25864640   0.06430695
412.00   2.24261898   0.06525165
414.00   2.22651405   0.06620554
416.00   2.21033162   0.06716867
418.00   2.19407170   0.06814108
420.00   2.17773429   0.06912281
422.00   2.16131939   0.07011391
424.00   2.14482703   0.07111443
426.00   2.12825720   0.07212440
428.00   2.11160991   0.07314387
430.00   2.09488518   0.07417289
432.00   2.07808299   0.07521150
434.00   2.06120337   0.07625975
436.00   2.04424632   0.07731767
438.00   2.02721185   0.07838531
440.00   2.01009997   0.07946272
442.00   1.99291068   0.08054994
444.00   1.97564399   0.08164702
446.00   1.95829990   0.08275399
448.00   1.94087844   0.08387091
450.00   1.92337959   0.08499781
452.00   1.90580338   0.08613474
454.00   1.88814980   0.08728175
456.00   1.87041888   0.08843887
458.00   1.85261060   0.08960616
460.00   1.83472499   0.09078365
462.00   1.81676205   0.09197140
464.00   1.79872178   0.09316944
466.00   1.78060420   0.09437782
468.00   1.76240931   0.09559658
470.00   1.74413713   0.09682576
472.00   1.72578765   0.09806542
474.00   1.70736089   0.09931559
476.00   1.68885685   0.10057632
478.00   1.67027555   0.10184765
480.00   1.65161699   0.10312963
482.00   1.63288118   0.10442230
484.00   1.61406812   0.10572570
486.00   1.59517783   0.10703988
488.00   1.57621032   0.10836489
490.00   1.55716558   0.10970075
492.00   1.53804364   0.11104753
494.00   1.51884450   0.11240526
496.00   1.49956816   0.11377399
498.00   1.48021464   0.11515376
500.00   1.46078394   0.11654461
502.00   1.44127608   0.11794660
504.00   1.42169106   0.11935975
506.00   1.40202888   0.12078413
508.00   1.38228956   0.12221976
510.00   1.36247311   0.12366670
512.00   1.34257954   0.12512498
514.00   1.32260885   0.12659466
516.00   1.30256105   0.12807577
518.00   1.28243615   0.12956836
520.00   1.26223417   0.13107248
522.00   1.24195510   0.13258816
524.00   1.22159896   0.13411545
526.00   1.20116575   0.13565440
528.00   1.18065549   0.13720505
530.00   1.16006819   0.13876743
532.00   1.13940385   0.14034161
534.00   1.11866248   0.14192761
536.00   1.09784409   0.14352548
538.00   1.07694869   0.14513528
540.00   1.05597630   0.14675703
542.00   1.03492691   0.14839078
544.00   1.01380053   0.15003659
546.00   0.99259719   0.15169448
548.00   0.97131688   0.15336451
550.00   0.94995962   0.15504672
552.00   0.92852541   0.15674115
554.00   0.90701426   0.15844785
556.00   0.88542619   0.16016685
558.00   0.86376120   0.16189821
560.00   0.84201930   0.16364197
562.00   0.82020051   0.16539817
564.00   0.79830482   0.16716685
566.00   0.77633226   0.16894806
568.00   0.75428283   0.17074183
570.00   0.73215653   0.17254823
572.00   0.70995339   0.17436728
574.00   0.68767340   0.17619903
576.00   0.66531658   0.17804353
578.00   0.64288294   0.17990082
580.00   0.62037249   0.18177094
582.00   0.59778524   0.18365393
584.00   0.57512119   0.18554985
586.00   0.55238036   0.18745872
588.00   0.52956276   0.18938061
590.00   0.50666840   0.19131554
592.00   0.48369728   0.19326357
594.00   0.46064942   0.19522473
596.00   0.43752483   0.19719907
598.00   0.41432352   0.19918663
600.00   0.39104549   0.20118747
602.00   0.36769076   0.20320161
604.00   0.34425933   0.20522910
606.00   0.32075123   0.20727000
608.00   0.29716645   0.20932433
610.00   0.27350501   0.21139215
612.00   0.24976692   0.21347349
614.00   0.22595219   0.21556841
616.00   0.20206083   0.21767693
618.00   0.17809284   0.21979912
620.00   0.15404825   0.22193500
622.00   0.12992705   0.22408463
624.00   0.10572927   0.22624805
626.00   0.08145491   0.22842529
628.00   0.05710398   0.23061641
630.00   0.03267649   0.23282145
632.00   0.00817245   0.23504044
634.00  -0.01640812   0.23727344
636.00  -0.04106522   0.23952049
638.00  -0.06579883   0.24178163
640.00  -0.09060895   0.24405689
642.00  -0.11549556   0.24634634
644.00  -0.14045865   0.24865000
646.00  -0.16549822   0.25096793
648.00  -0.19061425   0.25330016
650.00  -0.21580672   0.25564674
652.00  -0.24107564   0.25800772
654.00  -0.26642099   0.26038312
656.00  -0.29184275   0.26277301
658.00  -0.31734092   0.26517742
660.00  -0.34291549   0.26759639
662.00  -0.36856644   0.27002997
664.00  -0.39429376   0.27247820
666.00  -0.42009744   0.27494113
668.00  -0.44597748   0.27741879
670.00  -0.47193386   0.27991123
672.00  -0.49796656   0.28241849
674.00  -0.52407558   0.28494062
676.00  -0.55026091   0.28747766
678.00  -0.57652253   0.29002965
680.00  -0.60286044   0.29259664
682.00  -0.62927462   0.29517866
684.00  -0.65576505   0.29777577
686.00  -0.68233174   0.30038800
688.00  -0.70897467   0.30301539
690.00  -0.73569382   0.30565800
692.00  -0.76248918   0.30831586
694.00  -0.78936075   0.31098901
696.00  -0.81630851   0.31367751
698.00  -0.84333245   0.31638138
700.00  -0.87043255   0.31910068
702.00  -0.89760881   0.32183545
704.00  -0.92486122   0.32458573
706.00  -0.95218976   0.32735156
708.00  -0.97959442   0.33013298
710.00  -1.00707519   0.33293005
712.00  -1.03463205   0.33574280
714.00  -1.06226500   0.33857127
716.00  -1.08997403   0.34141551
718.00  -1.11775911   0.34427555
720.00  -1.14562025   0.34715146
722.00  -1.17355742   0.35004325
724.00  -1.20157062   0.35295099
726.00  -1.22965982   0.35587471
728.00  -1.25782503   0.35881445
730.00  -1.28606623   0.36177025
732.00  -1.31438341   0.36474217
734.00  -1.34277655   0.36773024
736.00  -1.37124564   0.37073450
738.00  -1.39979067   0.37375500
740.00  -1.42841163   0.37679178
742.00  -1.45710850   0.37984488
744.00  -1.48588128   0.38291435
746.00  -1.51472995   0.38600023
748.00  -1.54365449   0.38910256
750.00  -1.57265490   0.39222138
752.00  -1.60173116   0.39535673
754.00  -1.63088326   0.39850867
756.00  -1.66011119   0.40167722
758.00  -1.68941494   0.40486244
760.00  -1.71879448   0.40806437
762.00  -1.74824982   0.41128304
764.00  -1.77778093   0.41451851
766.00  -1.80738781   0.41777080
768.00  -1.83707044   0.42103998
770.00  -1.86682881   0.42432607
772.00  -1.89666290   0.42762913
774.00  -1.92657271   0.43094919
776.00  -1.95655822   0.43428629
778.00  -1.98661941   0.43764048
780.00  -2.01675628   0.44101181
782.00  -2.04696881   0.44440030
784.00  -2.07725698   0.44780602
786.00  -2.10762080   0.45122899
788.00  -2.13806023   0.45466926
790.00  -2.16857527   0.45812687
792.00  -2.19916591   0.46160187
794.00  -2.22983213   0.46509430
796.00  -2.26057392   0.46860420
798.00  -2.29139127   0.47213161
800.00  -2.32228416   0.47567657
802.00  -2.35325258   0.47923913
804.00  -2.38429651   0.48281933
806.00  -2.41541595   0.48641721
808.00  -2.44661088   0.49003282
810.00  -2.47788128   0.49366619
812.00  -2.50922715   0.49731737
814.00  -2.54064846   0.50098640
816.00  -2.57214521   0.50467332
818.00  -2.60371738   0.50837818
820.00  -2.63536496   0.51210101
822.00  -2.66708794   0.51584186
824.00  -2.69888630   0.51960078
826.00  -2.73076002   0.52337779
828.00  -2.76270910   0.52717296
830.00  -2.79473351   0.53098631
832.00  -2.82683326   0.53481789
834.00  -2.85900831   0.53866774
836.00  -2.89125867   0.54253590
838.00  -2.92358431   0.54642242
840.00  -2.95598521   0.55032734
842.00  -2.98846138   0.55425070
844.00  -3.02101279   0.55819255
846.00  -3.05363943   0.56215291
848.00  -3.08634128   0.56613184
850.00  -3.11911833   0.57012938
852.00  -3.15197058   0.57414557
854.00  -3.18489799   0.57818045
856.00  -3.21790056   0.58223407
858.00  -3.25097827   0.58630646
860.00  -3.28413112   0.59039767
862.00  -3.31735908   0.59450774
864.00  -3.35066214   0.59863671
866.00  -3.38404029   0.60278462
868.00  -3.41749352   0.60695152
870.00  -3.45102180   0.61113745
872.00  -3.48462512   0.61534244
874.00  -3.51830348   0.61956655
876.00  -3.55205685   0.62380981
878.00  -3.58588522   0.62807226
880.00  -3.61978858   0.63235395
882.00  -3.65376691   0.63665492
884.00  -3.68782019   0.64097520
886.00  -3.72194842   0.64531485
888.00  -3.75615158   0.64967390
890.00  -3.79042965   0.65405240
892.00  -3.82478262   0.65845038
894.00  -3.85921047   0.66286789
896.00  -3.89371319   0.66730498
898.00  -3.92829077   0.67176167
900.00  -3.96294318   0.67623801
902.00  -3.99767042   0.68073405
904.00  -4.03247247   0.68524983
906.00  -4.06734931   0.68978539
908.00  -4.10230094   0.69434076
910.00  -4.13732732   0.69891600
912.00  -4.17242846   0.70351114
914.00  -4.20760433   0.70812622
916.00  -4.24285492   0.71276129
918.00  -4.27818022   0.71741639
920.00  -4.31358021   0.72209155
922.00  -4.34905487   0.72678683
924.00  -4.38460419   0.73150225
926.00  -4.42022815   0.73623788
928.00  -4.45592674   0.74099373
930.00  -4.49169995   0.74576986
932.00  -4.52754775   0.75056631
934.00  -4.56347014   0.75538312
936.00  -4.59946709   0.76022033
938.00  -4.63553859   0.76507798
940.00  -4.67168463   0.76995611
942.00  -4.70790520   0.77485477
944.00  -4.74420026   0.77977400
946.00  -4.78056982   0.78471383
948.00  -4.81701385   0.78967431
950.00  -4.85353234   0.79465547
952.00  -4.89012528   0.79965737
954.00  -4.92679264   0.80468005
956.00  -4.96353441   0.80972353
958.00  -5.00035058   0.81478787
960.00  -5.03724113   0.81987311
962.00  -5.07420605   0.82497928
964.00  -5.11124531   0.83010643
966.00  -5.14835891   0.83525461
968.00  -5.18554682   0.84042384
970.00  -5.22280903   0.84561417
972.00  -5.26014553   0.85082565
974.00  -5.29755630   0.85605831
976.00  -5.33504133   0.86131219
978.00  -5.37260059   0.86658734
980.00  -5.41023407   0.87188380
982.00  -5.44794176   0.87720161
984.00  -5.48572363   0.88254080
986.00  -5.52357968   0.88790143
988.00  -5.56150989   0.89328353
990.00  -5.59951423   0.89868714
992.00  -5.63759271   0.90411230
994.00  -5.67574529   0.90955906
996.00  -5.71397196   0.91502745
998.00  -5.75227270   0.92051752
1000.00  -5.79064751   0.92602931
1002.00  -5.82909636   0.93156285
1004.00  -5.86761924   0.93711819
1006.00  -5.90621612   0.94269537
1008.00  -5.94488700   0.94829443
1010.00  -5.98363186   0.95391542
1012.00  -6.02245068   0.95955836
1014.00  -6.06134344   0.96522331
1016.00  -6.10031013   0.97091030
1018.00  -6.13935073   0.97661938
1020.00  -6.17846523   0.98235058
1022.00  -6.21765360   0.98810395
1024.00  -6.25691583   0.99387953
1026.00  -6.29625191   0.99967735
1028.00  -6.33566182   1.00549746
1030.00  -6.37514553   1.01133990
1032.00  -6.41470304   1.01720471
1034.00  -6.45433433   1.02309192
1036.00  -6.49403938   1.02900159
1038.00  -6.53381817   1.03493375
1040.00  -6.57367069   1.04088845
1042.00  -6.61359691   1.04686571
1044.00  -6.65359683   1.05286559
1046.00  -6.69367043   1.05888812
1048.00  -6.73381768   1.06493335
1050.00  -6.77403857   1.07100131
1052.00  -6.81433309   1.07709204
1054.00  -6.85470122   1.08320559
1056.00  -6.89514293   1.08934200
1058.00  -6.93565822   1.09550131
1060.00  -6.97624706   1.10168355
1062.00  -7.01690944   1.10788877
1064.00  -7.05764535   1.11411700
1066.00  -7.09845475   1.12036830
1068.00  -7.13933764   1.12664269
1070.00  -7.18029400   1.13294022
1072.00  -7.22132382   1.13926093
1074.00  -7.26242706   1.14560487
1076.00  -7.30360373   1.15197206
1078.00  -7.34485379   1.15836255
1080.00  -7.38617723   1.16477638
1082.00  -7.42757404   1.17121359
1084.00  -7.46904419   1.17767423
1086.00  -7.51058768   1.18415832
1088.00  -7.55220447   1.19066592
1090.00  -7.59389456   1.19719706
1092.00  -7.63565792   1.20375178
1094.00  -7.67749454   1.21033012
1096.00  -7.71940441   1.21693212
1098.00  -7.76138749   1.22355783
1100.00  -7.80344378   1.23020728
1102.00  -7.84557326   1.23688051
1104.00  -7.88777590   1.24357756
1106.00  -7.93005170   1.25029848
1108.00  -7.97240063   1.25704330
1110.00  -8.01482268   1.26381206
1112.00  -8.05731782   1.27060481
1114.00  -8.09988605   1.27742157
1116.00  -8.14252733   1.28426240
1118.00  -8.18524166   1.29112734
1120.00  -8.22802901   1.29801641
1122.00  -8.27088937   1.30492967
1124.00  -8.31382272   1.31186715
1126.00  -8.35682904   1.31882889
1128.00  -8.39990831   1.32581494
1130.00  -8.44306051   1.33282532
1132.00  -8.48628564   1.33986009
1134.00  -8.52958366   1.34691928
1136.00  -8.57295456   1.35400293
1138.00  -8.61639832   1.36111109
1140.00  -8.65991492   1.36824378
1142.00  -8.70350435   1.37540106
1144.00  -8.74716658   1.38258295
1146.00  -8.79090160   1.38978951
1148.00  -8.83470939   1.39702076
1150.00  -8.87858993   1.40427676
1152.00  -8.92254320   1.41155753
1154.00  -8.96656919   1.41886313
1156.00  -9.01066786   1.42619358
1158.00  -9.05483922   1.43354893
1160.00  -9.09908323   1.44092922
1162.00  -9.14339988   1.44833448
1164.00  -9.18778915   1.45576477
1166.00  -9.23225103   1.46322011
1168.00  -9.27678548   1.47070054
1170.00  -9.32139250   1.47820611
1172.00  -9.36607206   1.48573686
1174.00  -9.41082415   1.49329282
1176.00  -9.45564875   1.50087403
1178.00  -9.50054583   1.50848054
1180.00  -9.54551538   1.51611238
1182.00  -9.59055739   1.52376960
1184.00  -9.63567182   1.53145222
1186.00  -9.68085867   1.53916030
1188.00  -9.72611790   1.54689386
1190.00  -9.77144952   1.55465296
1192.00  -9.81685348   1.56243763
1194.00  -9.86232979   1.57024790
1196.00  -9.90787841   1.57808382
1198.00  -9.95349933   1.58594543
1200.00  -9.99919252   1.59383276
1202.00 -10.04495797   1.60174586
1204.00 -10.09079567   1.60968477
1206.00 -10.13670558   1.61764952
1208.00 -10.18268770   1.62564015
1210.00 -10.22874199   1.63365670
1212.00 -10.27486845   1.64169922
1214.00 -10.32106705   1.64976773
1216.00 -10.36733778   1.65786229
1218.00 -10.41368061   1.66598292
1220.00 -10.46009552   1.67412967
1222.00 -10.50658249   1.68230258
1224.00 -10.55314152   1.69050168
1226.00 -10.59977256   1.69872702
1228.00 -10.64647562   1.70697863
1230.00 -10.69325066   1.71525655
1232.00 -10.74009766   1.72356083
1234.00 -10.78701662   1.73189150
1236.00 -10.83400750   1.74024859
1238.00 -10.88107029   1.74863216
1240.00 -10.92820496   1.75704223
1242.00 -10.97541151   1.76547885
1244.00 -11.02268990   1.77394205
1246.00 -11.07004012   1.78243188
1248.00 -11.11746215   1.79094837
1250.00 -11.16495596   1.79949156
1252.00 -11.21252155   1.80806149
1254.00 -11.26015888   1.81665820
1256.00 -11.30786794   1.82528173
1258.00 -11.35564871   1.83393211
1260.00 -11.40350117   1.84260939
1262.00 -11.45142530   1.85131360
1264.00 -11.49942107   1.86004479
1266.00 -11.54748848   1.86880299
1268.00 -11.59562749   1.87758823
1270.00 -11.64383808   1.88640057
1272.00 -11.69212025   1.89524003
1274.00 -11.74047396   1.90410666
1276.00 -11.78889920   1.91300049
1278.00 -11.83739595   1.92192156
1280.00 -11.88596418   1.93086992
1282.00 -11.93460388   1.93984559
1284.00 -11.98331502   1.94884863
1286.00 -12.03209759   1.95787906
1288.00 -12.08095157   1.96693692
1290.00 -12.12987692   1.97602226
1292.00 -12.17887365   1.98513511
1294.00 -12.22794171   1.99427551
1296.00 -12.27708110   2.00344349
1298.00 -12.32629179   2.01263911
