wavelength(nm)         real         imag
100.00   3.88010639   0.00019010
102.00   3.87930277   0.00020174
104.00   3.87848323   0.00021384
106.00   3.87764779   0.00022641
108.00   3.87679645   0.00023947
110.00   3.87592919   0.00025302
112.00   3.87504604   0.00026707
114.00   3.87414697   0.00028164
116.00   3.87323200   0.00029672
118.00   3.87230113   0.00031233
120.00   3.87135435   0.00032848
122.00   3.87039167   0.00034518
124.00   3.86941309   0.00036243
126.00   3.86841860   0.00038025
128.00   3.86740821   0.00039865
130.00   3.86638192   0.00041763
132.00   3.86533973   0.00043720
134.00   3.86428163   0.00045737
136.00   3.86320763   0.00047815
138.00   3.86211774   0.00049956
140.00   3.86101194   0.00052159
142.00   3.85989025   0.00054426
144.00   3.85875266   0.00056758
146.00   3.85759916   0.00059156
148.00   3.85642977   0.00061620
150.00   3.85524449   0.00064152
152.00   3.85404330   0.00066752
154.00   3.85282622   0.00069421
156.00   3.85159325   0.00072161
158.00   3.85034438   0.00074972
160.00   3.84907961   0.00077854
162.00   3.84779895   0.00080810
164.00   3.84650240   0.00083840
166.00   3.84518996   0.00086944
168.00   3.84386162   0.00090124
170.00   3.84251739   0.00093381
172.00   3.84115727   0.00096715
174.00   3.83978126   0.00100127
176.00   3.83838936   0.00103619
178.00   3.83698157   0.00107191
180.00   3.83555789   0.00110845
182.00   3.83411832   0.00114580
184.00   3.83266286   0.00118398
186.00   3.83119152   0.00122300
188.00   3.82970430   0.00126287
190.00   3.82820118   0.00130360
192.00   3.82668218   0.00134519
194.00   3.82514730   0.00138765
196.00   3.82359654   0.00143100
198.00   3.82202989   0.00147525
200.00   3.82044736   0.00152040
202.00   3.81884894   0.00156645
204.00   3.81723465   0.00161343
206.00   3.81560448   0.00166134
208.00   3.81395842   0.00171019
210.00   3.81229649   0.00175998
212.00   3.81061868   0.00181073
214.00   3.80892500   0.00186245
216.00   3.80721543   0.00191514
218.00   3.80548999   0.00196882
220.00   3.80374868   0.00202349
222.00   3.80199149   0.00207916
224.00   3.80021843   0.00213585
226.00   3.79842950   0.00219355
228.00   3.79662469   0.00225229
230.00   3.79480401   0.00231206
232.00   3.79296747   0.00237288
234.00   3.79111505   0.00243476
236.00   3.78924677   0.00249770
238.00   3.78736261   0.00256172
240.00   3.78546259   0.00262682
242.00   3.78354671   0.00269302
244.00   3.78161495   0.00276031
246.00   3.77966734   0.00282872
248.00   3.77770386   0.00289825
250.00   3.77572452   0.00296891
252.00   3.77372931   0.00304071
254.00   3.77171825   0.00311366
256.00   3.76969132   0.00318776
258.00   3.76764854   0.00326302
260.00   3.76558989   0.00333947
262.00   3.76351539   0.00341709
264.00   3.76142504   0.00349591
266.00   3.75931882   0.00357593
268.00   3.75719675   0.00365717
270.00   3.75505883   0.00373962
272.00   3.75290506   0.00382330
274.00   3.75073543   0.00390822
276.00   3.74854996   0.00399439
278.00   3.74634863   0.00408181
280.00   3.74413145   0.00417050
282.00   3.74189843   0.00426047
284.00   3.73964956   0.00435171
286.00   3.73738484   0.00444426
288.00   3.73510428   0.00453810
290.00   3.73280787   0.00463325
292.00   3.73049562   0.00472972
294.00   3.72816753   0.00482752
296.00   3.72582359   0.00492666
298.00   3.72346382   0.00502715
300.00   3.72108821   0.00512899
302.00   3.71869676   0.00523220
304.00   3.71628947   0.00533678
306.00   3.71386634   0.00544275
308.00   3.71142739   0.00555011
310.00   3.70897259   0.00565886
312.00   3.70650197   0.00576903
314.00   3.70401551   0.00588062
316.00   3.70151323   0.00599364
318.00   3.69899511   0.00610809
320.00   3.69646116   0.00622399
322.00   3.69391139   0.00634135
324.00   3.69134579   0.00646017
326.00   3.68876437   0.00658047
328.00   3.68616712   0.00670224
330.00   3.68355405   0.00682551
332.00   3.68092516   0.00695028
334.00   3.67828045   0.00707656
336.00   3.67561992   0.00720436
338.00   3.67294357   0.00733369
340.00   3.67025140   0.00746455
342.00   3.66754342   0.00759696
344.00   3.66481963   0.00773092
346.00   3.66208002   0.00786645
348.00   3.65932459   0.00800355
350.00   3.65655336   0.00814224
352.00   3.65376632   0.00828251
354.00   3.65096346   0.00842439
356.00   3.64814480   0.00856787
358.00   3.64531034   0.00871297
360.00   3.64246007   0.00885970
362.00   3.63959400   0.00900806
364.00   3.63671212   0.00915807
366.00   3.63381444   0.00930974
368.00   3.63090096   0.00946307
370.00   3.62797169   0.00961807
372.00   3.62502661   0.00977475
374.00   3.62206575   0.00993312
376.00   3.61908908   0.01009319
378.00   3.61609662   0.01025497
380.00   3.61308837   0.01041846
382.00   3.61006433   0.01058369
384.00   3.60702450   0.01075064
386.00   3.60396889   0.01091935
388.00   3.60089748   0.01108980
390.00   3.59781029   0.01126202
392.00   3.59470732   0.01143601
394.00   3.59158856   0.01161178
396.00   3.58845402   0.01178933
398.00   3.58530370   0.01196869
400.00   3.58213760   0.01214985
402.00   3.57895573   0.01233283
404.00   3.57575808   0.01251764
406.00   3.57254465   0.01270428
408.00   3.56931545   0.01289276
410.00   3.56607048   0.01308310
412.00   3.56280974   0.01327529
414.00   3.55953323   0.01346936
416.00   3.55624095   0.01366531
418.00   3.55293291   0.01386314
420.00   3.54960910   0.01406287
422.00   3.54626953   0.01426451
424.00   3.54291420   0.01446806
426.00   3.53954311   0.01467354
428.00   3.53615626   0.01488095
430.00   3.53275365   0.01509030
432.00   3.52933528   0.01530160
434.00   3.52590116   0.01551487
436.00   3.52245129   0.01573010
438.00   3.51898567   0.01594731
440.00   3.51550430   0.01616650
442.00   3.51200718   0.01638770
444.00   3.50849431   0.01661089
446.00   3.50496570   0.01683610
448.00   3.50142134   0.01706334
450.00   3.49786124   0.01729260
452.00   3.49428540   0.01752391
454.00   3.49069382   0.01775727
456.00   3.48708651   0.01799268
458.00   3.48346346   0.01823016
460.00   3.47982467   0.01846972
462.00   3.47617015   0.01871136
464.00   3.47249990   0.01895510
466.00   3.46881392   0.01920094
468.00   3.46511222   0.01944890
470.00   3.46139478   0.01969897
472.00   3.45766163   0.01995118
474.00   3.45391275   0.02020552
476.00   3.45014814   0.02046202
478.00   3.44636782   0.02072066
480.00   3.44257178   0.02098148
482.00   3.43876002   0.02124447
484.00   3.43493255   0.02150964
486.00   3.43108937   0.02177701
488.00   3.42723047   0.02204658
490.00   3.42335587   0.02231836
492.00   3.41946555   0.02259236
494.00   3.41555953   0.02286859
496.00   3.41163781   0.02314705
498.00   3.40770038   0.02342776
500.00   3.40374725   0.02371073
502.00   3.39977842   0.02399596
504.00   3.39579389   0.02428346
506.00   3.39179367   0.02457325
508.00   3.38777775   0.02486532
510.00   3.38374614   0.02515970
512.00   3.37969884   0.02545638
514.00   3.37563585   0.02575538
516.00   3.37155717   0.02605671
518.00   3.36746281   0.02636038
520.00   3.36335276   0.02666639
522.00   3.35922704   0.02697475
524.00   3.35508563   0.02728547
526.00   3.35092854   0.02759857
528.00   3.34675578   0.02791404
530.00   3.34256734   0.02823191
532.00   3.33836323   0.02855217
534.00   3.33414344   0.02887484
536.00   3.32990799   0.02919992
538.00   3.32565687   0.02952743
540.00   3.32139009   0.02985737
542.00   3.31710764   0.03018975
544.00   3.31280953   0.03052459
546.00   3.30849576   0.03086188
548.00   3.30416633   0.03120165
550.00   3.29982124   0.03154389
552.00   3.29546050   0.03188862
554.00   3.29108411   0.03223584
556.00   3.28669207   0.03258557
558.00   3.28228438   0.03293781
560.00   3.27786104   0.03329257
562.00   3.27342206   0.03364987
564.00   3.26896743   0.03400970
566.00   3.26449717   0.03437208
568.00   3.26001126   0.03473702
570.00   3.25550972   0.03510453
572.00   3.25099254   0.03547461
574.00   3.24645973   0.03584728
576.00   3.24191129   0.03622254
578.00   3.23734722   0.03660040
580.00   3.23276752   0.03698087
582.00   3.22817220   0.03736396
584.00   3.22356125   0.03774968
586.00   3.21893468   0.03813804
588.00   3.21429250   0.03852904
590.00   3.20963469   0.03892270
592.00   3.20496127   0.03931902
594.00   3.20027224   0.03971801
596.00   3.19556760   0.04011969
598.00   3.19084734   0.04052405
600.00   3.18611148   0.04093112
602.00   3.18136002   0.04134089
604.00   3.17659295   0.04175338
606.00   3.17181028   0.04216859
608.00   3.16701201   0.04258654
610.00   3.16219815   0.04300723
612.00   3.15736869   0.04343068
614.00   3.15252364   0.04385688
616.00   3.14766300   0.04428586
618.00   3.14278677   0.04471761
620.00   3.13789495   0.04515215
622.00   3.13298755   0.04558949
624.00   3.12806457   0.04602963
626.00   3.12312601   0.04647259
628.00   3.11817187   0.04691837
630.00   3.11320216   0.04736697
632.00   3.10821687   0.04781842
634.00   3.10321601   0.04827272
636.00   3.09819958   0.04872988
638.00   3.09316758   0.04918990
640.00   3.08812002   0.04965280
642.00   3.08305690   0.05011858
644.00   3.07797822   0.05058726
646.00   3.07288398   0.05105883
648.00   3.06777418   0.05153332
650.00   3.06264883   0.05201073
652.00   3.05750793   0.05249106
654.00   3.05235148   0.05297433
656.00   3.04717948   0.05346055
658.00   3.04199194   0.05394972
660.00   3.03678885   0.05444185
662.00   3.03157023   0.05493696
664.00   3.02633607   0.05543505
666.00   3.02108637   0.05593612
668.00   3.01582113   0.05644020
670.00   3.01054037   0.05694728
672.00   3.00524408   0.05745738
674.00   2.99993226   0.05797050
676.00   2.99460492   0.05848665
678.00   2.98926205   0.05900585
680.00   2.98390367   0.05952810
682.00   2.97852976   0.06005340
684.00   2.97314035   0.06058178
686.00   2.96773542   0.06111323
688.00   2.96231498   0.06164777
690.00   2.95687903   0.06218540
692.00   2.95142758   0.06272613
694.00   2.94596062   0.06326998
696.00   2.94047816   0.06381695
698.00   2.93498020   0.06436705
700.00   2.92946675   0.06492028
702.00   2.92393781   0.06547666
704.00   2.91839337   0.06603620
706.00   2.91283344   0.06659890
708.00   2.90725803   0.06716478
710.00   2.90166713   0.06773383
712.00   2.89606075   0.06830608
714.00   2.89043889   0.06888153
716.00   2.88480156   0.06946018
718.00   2.87914875   0.07004205
720.00   2.87348046   0.07062714
722.00   2.86779671   0.07121547
724.00   2.86209749   0.07180705
726.00   2.85638281   0.07240187
728.00   2.85065266   0.07299995
730.00   2.84490706   0.07360130
732.00   2.83914600   0.07420593
734.00   2.83336948   0.07481385
736.00   2.82757751   0.07542506
738.00   2.82177009   0.07603957
740.00   2.81594722   0.07665740
742.00   2.81010891   0.07727855
744.00   2.80425516   0.07790302
746.00   2.79838597   0.07853084
748.00   2.79250134   0.07916200
750.00   2.78660127   0.07979651
752.00   2.78068577   0.08043439
754.00   2.77475485   0.08107565
756.00   2.76880849   0.08172028
758.00   2.76284672   0.08236831
760.00   2.75686952   0.08301973
762.00   2.75087690   0.08367456
764.00   2.74486886   0.08433281
766.00   2.73884541   0.08499448
768.00   2.73280655   0.08565959
770.00   2.72675228   0.08632814
772.00   2.72068261   0.08700014
774.00   2.71459753   0.08767560
776.00   2.70849705   0.08835452
778.00   2.70238117   0.08903692
780.00   2.69624989   0.08972281
782.00   2.69010323   0.09041219
784.00   2.68394117   0.09110508
786.00   2.67776372   0.09180147
788.00   2.67157089   0.09250139
790.00   2.66536268   0.09320483
792.00   2.65913908   0.09391181
794.00   2.65290011   0.09462234
796.00   2.64664577   0.09533642
798.00   2.64037605   0.09605406
800.00   2.63409097   0.09677528
802.00   2.62779052   0.09750007
804.00   2.62147470   0.09822845
806.00   2.61514352   0.09896043
808.00   2.60879699   0.09969602
810.00   2.60243510   0.10043522
812.00   2.59605786   0.10117805
814.00   2.58966526   0.10192450
816.00   2.58325733   0.10267460
818.00   2.57683404   0.10342834
820.00   2.57039542   0.10418574
822.00   2.56394145   0.10494681
824.00   2.55747215   0.10571155
826.00   2.55098752   0.10647998
828.00   2.54448755   0.10725209
830.00   2.53797226   0.10802791
832.00   2.53144164   0.10880744
834.00   2.52489570   0.10959068
836.00   2.51833445   0.11037765
838.00   2.51175787   0.11116835
840.00   2.50516598   0.11196280
842.00   2.49855878   0.11276100
844.00   2.49193628   0.11356296
846.00   2.48529846   0.11436868
848.00   2.47864535   0.11517819
850.00   2.47197693   0.11599148
852.00   2.46529322   0.11680856
854.00   2.45859422   0.11762945
856.00   2.45187992   0.11845415
858.00   2.44515034   0.11928267
860.00   2.43840547   0.12011501
862.00   2.43164532   0.12095120
864.00   2.42486989   0.12179123
866.00   2.41807919   0.12263511
868.00   2.41127321   0.12348286
870.00   2.40445196   0.12433447
872.00   2.39761544   0.12518997
874.00   2.39076366   0.12604935
876.00   2.38389661   0.12691263
878.00   2.37701431   0.12777982
880.00   2.37011675   0.12865092
882.00   2.36320394   0.12952594
884.00   2.35627588   0.13040489
886.00   2.34933257   0.13128778
888.00   2.34237402   0.13217462
890.00   2.33540023   0.13306542
892.00   2.32841120   0.13396018
894.00   2.32140693   0.13485891
896.00   2.31438744   0.13576162
898.00   2.30735271   0.13666833
900.00   2.30030276   0.13757903
902.00   2.29323758   0.13849374
904.00   2.28615719   0.13941246
906.00   2.27906158   0.14033521
908.00   2.27195075   0.14126199
910.00   2.26482472   0.14219281
912.00   2.25768347   0.14312768
914.00   2.25052703   0.14406661
916.00   2.24335538   0.14500960
918.00   2.23616853   0.14595667
920.00   2.22896648   0.14690782
922.00   2.22174925   0.14786307
924.00   2.21451682   0.14882241
926.00   2.20726921   0.14978586
928.00   2.20000642   0.15075343
930.00   2.19272844   0.15172512
932.00   2.18543529   0.15270095
934.00   2.17812697   0.15368091
936.00   2.17080347   0.15466503
938.00   2.16346481   0.15565331
940.00   2.15611098   0.15664575
942.00   2.14874199   0.15764238
944.00   2.14135785   0.15864318
946.00   2.13395855   0.15964818
948.00   2.12654410   0.16065737
950.00   2.11911450   0.16167078
952.00   2.11166975   0.16268841
954.00   2.10420986   0.16371026
956.00   2.09673483   0.16473634
958.00   2.08924467   0.16576667
960.00   2.08173938   0.16680125
962.00   2.07421895   0.16784009
964.00   2.06668340   0.16888320
966.00   2.05913273   0.16993058
968.00   2.05156693   0.17098225
970.00   2.04398602   0.17203821
972.00   2.03639000   0.17309847
974.00   2.02877887   0.17416304
976.00   2.02115263   0.17523193
978.00   2.01351129   0.17630515
980.00   2.00585484   0.17738270
982.00   1.99818330   0.17846460
984.00   1.99049667   0.17955084
986.00   1.98279495   0.18064145
988.00   1.97507813   0.18173643
990.00   1.96734624   0.18283578
992.00   1.95959926   0.18393951
994.00   1.95183721   0.18504764
996.00   1.94406009   0.18616018
998.00   1.93626789   0.18727712
1000.00   1.92846063   0.18839848
1002.00   1.92063830   0.18952426
1004.00   1.91280091   0.19065449
1006.00   1.90494846   0.19178915
1008.00   1.89708096   0.19292827
1010.00   1.88919841   0.19407184
1012.00   1.88130082   0.19521989
1014.00   1.87338818   0.19637241
1016.00   1.86546050   0.19752941
1018.00   1.85751778   0.19869091
1020.00   1.84956003   0.19985691
1022.00   1.84158724   0.20102742
1024.00   1.83359943   0.20220244
1026.00   1.82559660   0.20338200
1028.00   1.81757875   0.20456609
1030.00   1.80954588   0.20575472
1032.00   1.80149800   0.20694790
1034.00   1.79343511   0.20814564
1036.00   1.78535721   0.20934795
1038.00   1.77726431   0.21055483
1040.00   1.76915641   0.21176630
1042.00   1.76103351   0.21298236
1044.00   1.75289562   0.21420302
1046.00   1.74474274   0.21542829
1048.00   1.73657488   0.21665818
1050.00   1.72839203   0.21789269
1052.00   1.72019421   0.21913184
1054.00   1.71198141   0.22037562
1056.00   1.70375364   0.22162406
1058.00   1.69551090   0.22287716
1060.00   1.68725319   0.22413492
1062.00   1.67898053   0.22539736
1064.00   1.67069290   0.22666448
1066.00   1.66239033   0.22793629
1068.00   1.65407280   0.22921280
1070.00   1.64574032   0.23049402
1072.00   1.63739291   0.23177995
1074.00   1.62903055   0.23307061
1076.00   1.62065325   0.23436600
1078.00   1.61226102   0.23566613
1080.00   1.60385387   0.23697101
1082.00   1.59543178   0.23828064
1084.00   1.58699478   0.23959504
1086.00   1.57854286   0.24091422
1088.00   1.57007602   0.24223817
1090.00   1.56159427   0.24356692
1092.00   1.55309761   0.24490046
1094.00   1.54458605   0.24623881
1096.00   1.53605958   0.24758197
1098.00   1.52751823   0.24892995
1100.00   1.51896197   0.25028277
1102.00   1.51039083   0.25164042
1104.00   1.50180480   0.25300292
1106.00   1.49320389   0.25437028
1108.00   1.48458810   0.25574249
1110.00   1.47595743   0.25711958
1112.00   1.46731190   0.25850155
1114.00   1.45865149   0.25988841
1116.00   1.44997622   0.26128016
1118.00   1.44128610   0.26267681
1120.00   1.43258111   0.26407838
1122.00   1.42386127   0.26548486
1124.00   1.41512658   0.26689628
1126.00   1.40637705   0.26831263
1128.00   1.39761267   0.26973392
1130.00   1.38883346   0.27116017
1132.00   1.38003941   0.27259137
1134.00   1.37123053   0.27402755
1136.00   1.36240682   0.27546870
1138.00   1.35356829   0.27691484
1140.00   1.34471494   0.27836597
1142.00   1.33584677   0.27982210
1144.00   1.32696380   0.28128324
1146.00   1.31806601   0.28274940
1148.00   1.30915342   0.28422058
1150.00   1.30022603   0.28569679
1152.00   1.29128384   0.28717805
1154.00   1.28232685   0.28866436
1156.00   1.27335508   0.29015572
1158.00   1.26436852   0.29165215
1160.00   1.25536718   0.29315365
1162.00   1.24635106   0.29466023
1164.00   1.23732017   0.29617191
1166.00   1.22827451   0.29768868
1168.00   1.21921408   0.29921056
1170.00   1.21013889   0.30073755
1172.00   1.20104894   0.30226966
1174.00   1.19194423   0.30380690
1176.00   1.18282477   0.30534928
1178.00   1.17369056   0.30689681
1180.00   1.16454161   0.30844949
1182.00   1.15537793   0.31000733
1184.00   1.14619950   0.31157034
1186.00   1.13700634   0.31313853
1188.00   1.12779846   0.31471191
1190.00   1.11857585   0.31629048
1192.00   1.10933852   0.31787425
1194.00   1.10008647   0.31946323
1196.00   1.09081971   0.32105743
1198.00   1.08153824   0.32265686
1200.00   1.07224207   0.32426152
1202.00   1.06293120   0.32587142
1204.00   1.05360563   0.32748657
1206.00   1.04426536   0.32910698
1208.00   1.03491041   0.33073265
1210.00   1.02554077   0.33236360
1212.00   1.01615645   0.33399983
1214.00   1.00675746   0.33564135
1216.00   0.99734379   0.33728817
1218.00   0.98791545   0.33894029
1220.00   0.97847244   0.34059773
1222.00   0.96901478   0.34226049
1224.00   0.95954246   0.34392858
1226.00   0.95005548   0.34560200
1228.00   0.94055385   0.34728078
1230.00   0.93103758   0.34896490
1232.00   0.92150667   0.35065438
1234.00   0.91196112   0.35234924
1236.00   0.90240093   0.35404947
1238.00   0.89282612   0.35575509
1240.00   0.88323668   0.35746610
1242.00   0.87363262   0.35918251
1244.00   0.86401394   0.36090433
1246.00   0.85438065   0.36263156
1248.00   0.84473275   0.36436422
1250.00   0.83507025   0.36610231
1252.00   0.82539314   0.36784584
1254.00   0.81570144   0.36959482
1256.00   0.80599514   0.37134926
1258.00   0.79627426   0.37310916
1260.00   0.78653879   0.37487453
1262.00   0.77678874   0.37664539
1264.00   0.76702411   0.37842172
1266.00   0.75724491   0.38020356
1268.00   0.74745114   0.38199090
1270.00   0.73764281   0.38378375
1272.00   0.72781992   0.38558211
1274.00   0.71798247   0.38738601
1276.00   0.70813047   0.38919544
1278.00   0.69826392   0.39101041
1280.00   0.68838283   0.39283093
1282.00   0.67848720   0.39465701
1284.00   0.66857703   0.39648866
1286.00   0.65865233   0.39832587
1288.00   0.64871310   0.40016868
1290.00   0.63875936   0.40201707
1292.00   0.62879109   0.40387105
1294.00   0.61880831   0.40573065
1296.00   0.60881101   0.40759585
1298.00   0.59879922   0.40946668
