wavelength(nm)         real         imag
100.00   3.81283875   0.00083290
102.00   3.80931777   0.00088388
104.00   3.80572710   0.00093690
106.00   3.80206673   0.00099199
108.00   3.79833667   0.00104920
110.00   3.79453692   0.00110858
112.00   3.79066747   0.00117014
114.00   3.78672834   0.00123395
116.00   3.78271953   0.00130004
118.00   3.77864103   0.00136844
120.00   3.77449285   0.00143920
122.00   3.77027499   0.00151236
124.00   3.76598745   0.00158796
126.00   3.76163023   0.00166603
128.00   3.75720334   0.00174663
130.00   3.75270678   0.00182978
132.00   3.74814054   0.00191552
134.00   3.74350464   0.00200391
136.00   3.73879907   0.00209497
138.00   3.73402383   0.00218875
140.00   3.72917893   0.00228529
142.00   3.72426437   0.00238462
144.00   3.71928016   0.00248680
146.00   3.71422628   0.00259185
148.00   3.70910276   0.00269981
150.00   3.70390958   0.00281073
152.00   3.69864675   0.00292465
154.00   3.69331428   0.00304161
156.00   3.68791216   0.00316164
158.00   3.68244039   0.00328479
160.00   3.67689899   0.00341109
162.00   3.67128795   0.00354059
164.00   3.66560727   0.00367333
166.00   3.65985697   0.00380934
168.00   3.65403703   0.00394867
170.00   3.64814746   0.00409136
172.00   3.64218827   0.00423744
174.00   3.63615946   0.00438695
176.00   3.63006103   0.00453994
178.00   3.62389298   0.00469645
180.00   3.61765531   0.00485651
182.00   3.61134804   0.00502016
184.00   3.60497115   0.00518745
186.00   3.59852466   0.00535842
188.00   3.59200857   0.00553310
190.00   3.58542287   0.00571153
192.00   3.57876758   0.00589376
194.00   3.57204269   0.00607982
196.00   3.56524821   0.00626976
198.00   3.55838415   0.00646361
200.00   3.55145049   0.00666141
202.00   3.54444726   0.00686321
204.00   3.53737444   0.00706904
206.00   3.53023205   0.00727894
208.00   3.52302009   0.00749296
210.00   3.51573855   0.00771113
212.00   3.50838745   0.00793349
214.00   3.50096678   0.00816009
216.00   3.49347656   0.00839095
218.00   3.48591677   0.00862613
220.00   3.47828743   0.00886566
222.00   3.47058854   0.00910958
224.00   3.46282011   0.00935794
226.00   3.45498213   0.00961076
228.00   3.44707461   0.00986810
230.00   3.43909755   0.01012998
232.00   3.43105096   0.01039646
234.00   3.42293484   0.01066757
236.00   3.41474919   0.01094335
238.00   3.40649402   0.01122384
240.00   3.39816933   0.01150907
242.00   3.38977513   0.01179910
244.00   3.38131141   0.01209396
246.00   3.37277819   0.01239368
248.00   3.36417546   0.01269832
250.00   3.35550323   0.01300790
252.00   3.34676150   0.01332247
254.00   3.33795028   0.01364207
256.00   3.32906957   0.01396674
258.00   3.32011938   0.01429652
260.00   3.31109970   0.01463144
262.00   3.30201055   0.01497155
264.00   3.29285192   0.01531689
266.00   3.28362382   0.01566749
268.00   3.27432626   0.01602340
270.00   3.26495924   0.01638465
272.00   3.25552276   0.01675130
274.00   3.24601682   0.01712336
276.00   3.23644144   0.01750090
278.00   3.22679661   0.01788393
280.00   3.21708235   0.01827251
282.00   3.20729864   0.01866668
284.00   3.19744550   0.01906647
286.00   3.18752294   0.01947192
288.00   3.17753095   0.01988308
290.00   3.16746955   0.02029998
292.00   3.15733872   0.02072266
294.00   3.14713849   0.02115117
296.00   3.13686885   0.02158554
298.00   3.12652982   0.02202580
300.00   3.11612138   0.02247201
302.00   3.10564355   0.02292421
304.00   3.09509634   0.02338242
306.00   3.08447974   0.02384669
308.00   3.07379376   0.02431706
310.00   3.06303841   0.02479358
312.00   3.05221369   0.02527627
314.00   3.04131961   0.02576518
316.00   3.03035617   0.02626035
318.00   3.01932337   0.02676181
320.00   3.00822122   0.02726962
322.00   2.99704973   0.02778380
324.00   2.98580890   0.02830440
326.00   2.97449873   0.02883145
328.00   2.96311923   0.02936501
330.00   2.95167040   0.02990509
332.00   2.94015226   0.03045176
334.00   2.92856480   0.03100504
336.00   2.91690803   0.03156497
338.00   2.90518196   0.03213160
340.00   2.89338658   0.03270496
342.00   2.88152191   0.03328509
344.00   2.86958795   0.03387204
346.00   2.85758471   0.03446584
348.00   2.84551219   0.03506653
350.00   2.83337039   0.03567415
352.00   2.82115933   0.03628874
354.00   2.80887900   0.03691035
356.00   2.79652941   0.03753900
358.00   2.78411057   0.03817474
360.00   2.77162248   0.03881762
362.00   2.75906516   0.03946766
364.00   2.74643859   0.04012491
366.00   2.73374280   0.04078940
368.00   2.72097778   0.04146119
370.00   2.70814354   0.04214030
372.00   2.69524009   0.04282678
374.00   2.68226742   0.04352066
376.00   2.66922556   0.04422199
378.00   2.65611450   0.04493080
380.00   2.64293425   0.04564714
382.00   2.62968481   0.04637103
384.00   2.61636619   0.04710254
386.00   2.60297840   0.04784168
388.00   2.58952144   0.04858851
390.00   2.57599532   0.04934306
392.00   2.56240004   0.05010537
394.00   2.54873561   0.05087548
396.00   2.53500204   0.05165342
398.00   2.52119933   0.05243925
400.00   2.50732749   0.05323300
402.00   2.49338652   0.05403470
404.00   2.47937643   0.05484440
406.00   2.46529722   0.05566214
408.00   2.45114891   0.05648795
410.00   2.43693150   0.05732188
412.00   2.42264499   0.05816397
414.00   2.40828939   0.05901424
416.00   2.39386471   0.05987276
418.00   2.37937095   0.06073954
420.00   2.36480812   0.06161464
422.00   2.35017623   0.06249808
424.00   2.33547528   0.06338992
426.00   2.32070528   0.06429019
428.00   2.30586623   0.06519893
430.00   2.29095815   0.06611618
432.00   2.27598103   0.06704197
434.00   2.26093489   0.06797635
436.00   2.24581973   0.06891936
438.00   2.23063556   0.06987104
440.00   2.21538238   0.07083142
442.00   2.20006020   0.07180055
444.00   2.18466903   0.07277846
446.00   2.16920888   0.07376519
448.00   2.15367974   0.07476078
450.00   2.13808164   0.07576528
452.00   2.12241456   0.07677872
454.00   2.10667853   0.07780114
456.00   2.09087355   0.07883257
458.00   2.07499963   0.07987307
460.00   2.05905676   0.08092266
462.00   2.04304497   0.08198139
464.00   2.02696425   0.08304930
466.00   2.01081462   0.08412642
468.00   1.99459607   0.08521280
470.00   1.97830862   0.08630847
472.00   1.96195228   0.08741348
474.00   1.94552705   0.08852785
476.00   1.92903294   0.08965164
478.00   1.91246995   0.09078488
480.00   1.89583810   0.09192761
482.00   1.87913738   0.09307987
484.00   1.86236782   0.09424169
486.00   1.84552941   0.09541313
488.00   1.82862216   0.09659421
490.00   1.81164608   0.09778497
492.00   1.79460118   0.09898546
494.00   1.77748746   0.10019571
496.00   1.76030493   0.10141577
498.00   1.74305361   0.10264567
500.00   1.72573349   0.10388545
502.00   1.70834458   0.10513515
504.00   1.69088690   0.10639480
506.00   1.67336044   0.10766446
508.00   1.65576523   0.10894415
510.00   1.63810125   0.11023392
512.00   1.62036854   0.11153381
514.00   1.60256708   0.11284385
516.00   1.58469689   0.11416408
518.00   1.56675797   0.11549455
520.00   1.54875034   0.11683529
522.00   1.53067400   0.11818633
524.00   1.51252896   0.11954773
526.00   1.49431522   0.12091952
528.00   1.47603281   0.12230173
530.00   1.45768171   0.12369441
532.00   1.43926195   0.12509759
534.00   1.42077352   0.12651132
536.00   1.40221644   0.12793563
538.00   1.38359072   0.12937057
540.00   1.36489636   0.13081616
542.00   1.34613337   0.13227246
544.00   1.32730176   0.13373950
546.00   1.30840154   0.13521731
548.00   1.28943271   0.13670594
550.00   1.27039529   0.13820543
552.00   1.25128928   0.13971581
554.00   1.23211470   0.14123712
556.00   1.21287154   0.14276941
558.00   1.19355982   0.14431270
560.00   1.17417954   0.14586705
562.00   1.15473072   0.14743249
564.00   1.13521336   0.14900905
566.00   1.11562747   0.15059679
568.00   1.09597307   0.15219572
570.00   1.07625015   0.15380591
572.00   1.05645873   0.15542737
574.00   1.03659881   0.15706016
576.00   1.01667041   0.15870430
578.00   0.99667353   0.16035985
580.00   0.97660818   0.16202684
582.00   0.95647437   0.16370530
584.00   0.93627211   0.16539528
586.00   0.91600141   0.16709681
588.00   0.89566227   0.16880994
590.00   0.87525471   0.17053470
592.00   0.85477874   0.17227113
594.00   0.83423435   0.17401927
596.00   0.81362157   0.17577915
598.00   0.79294040   0.17755083
600.00   0.77219085   0.17933433
602.00   0.75137293   0.18112969
604.00   0.73048665   0.18293696
606.00   0.70953201   0.18475617
608.00   0.68850903   0.18658736
610.00   0.66741771   0.18843057
612.00   0.64625807   0.19028583
614.00   0.62503011   0.19215320
616.00   0.60373385   0.19403270
618.00   0.58236929   0.19592437
620.00   0.56093643   0.19782825
622.00   0.53943530   0.19974438
624.00   0.51786590   0.20167281
626.00   0.49622824   0.20361356
628.00   0.47452233   0.20556668
630.00   0.45274817   0.20753220
632.00   0.43090578   0.20951017
634.00   0.40899517   0.21150062
636.00   0.38701635   0.21350359
638.00   0.36496932   0.21551912
640.00   0.34285410   0.21754724
642.00   0.32067069   0.21958801
644.00   0.29841910   0.22164145
646.00   0.27609935   0.22370760
648.00   0.25371145   0.22578650
650.00   0.23125540   0.22787819
652.00   0.20873121   0.22998272
654.00   0.18613890   0.23210011
656.00   0.16347846   0.23423040
658.00   0.14074992   0.23637364
660.00   0.11795329   0.23852986
662.00   0.09508856   0.24069911
664.00   0.07215576   0.24288141
666.00   0.04915489   0.24507681
668.00   0.02608597   0.24728534
670.00   0.00294899   0.24950705
672.00  -0.02025602   0.25174198
674.00  -0.04352906   0.25399015
676.00  -0.06687012   0.25625161
678.00  -0.09027918   0.25852641
680.00  -0.11375624   0.26081456
682.00  -0.13730129   0.26311613
684.00  -0.16091432   0.26543113
686.00  -0.18459531   0.26775962
688.00  -0.20834426   0.27010163
690.00  -0.23216116   0.27245719
692.00  -0.25604599   0.27482635
694.00  -0.27999874   0.27720915
696.00  -0.30401942   0.27960561
698.00  -0.32810799   0.28201579
700.00  -0.35226446   0.28443972
702.00  -0.37648882   0.28687743
704.00  -0.40078105   0.28932897
706.00  -0.42514114   0.29179438
708.00  -0.44956908   0.29427368
710.00  -0.47406487   0.29676693
712.00  -0.49862849   0.29927415
714.00  -0.52325993   0.30179539
716.00  -0.54795918   0.30433069
718.00  -0.57272622   0.30688008
720.00  -0.59756106   0.30944360
722.00  -0.62246367   0.31202128
724.00  -0.64743405   0.31461318
726.00  -0.67247219   0.31721932
728.00  -0.69757808   0.31983974
730.00  -0.72275169   0.32247449
732.00  -0.74799304   0.32512359
734.00  -0.77330209   0.32778709
736.00  -0.79867885   0.33046503
738.00  -0.82412329   0.33315744
740.00  -0.84963542   0.33586437
742.00  -0.87521522   0.33858584
744.00  -0.90086267   0.34132190
746.00  -0.92657778   0.34407258
748.00  -0.95236051   0.34683793
750.00  -0.97821088   0.34961799
752.00  -1.00412885   0.35241278
754.00  -1.03011443   0.35522235
756.00  -1.05616760   0.35804673
758.00  -1.08228835   0.36088597
760.00  -1.10847667   0.36374010
762.00  -1.13473254   0.36660916
764.00  -1.16105596   0.36949318
766.00  -1.18744692   0.37239222
768.00  -1.21390540   0.37530629
770.00  -1.24043139   0.37823545
772.00  -1.26702488   0.38117972
774.00  -1.29368586   0.38413915
776.00  -1.32041432   0.38711378
778.00  -1.34721024   0.39010363
780.00  -1.37407362   0.39310876
782.00  -1.40100444   0.39612920
784.00  -1.42800269   0.39916498
786.00  -1.45506836   0.40221614
788.00  -1.48220144   0.40528273
790.00  -1.50940192   0.40836478
792.00  -1.53666978   0.41146232
794.00  -1.56400501   0.41457540
796.00  -1.59140760   0.41770405
798.00  -1.61887754   0.42084831
800.00  -1.64641482   0.42400821
802.00  -1.67401943   0.42718381
804.00  -1.70169135   0.43037512
806.00  -1.72943057   0.43358220
808.00  -1.75723708   0.43680507
810.00  -1.78511087   0.44004378
812.00  -1.81305192   0.44329837
814.00  -1.84106023   0.44656887
816.00  -1.86913577   0.44985531
818.00  -1.89727855   0.45315774
820.00  -1.92548855   0.45647620
822.00  -1.95376575   0.45981072
824.00  -1.98211014   0.46316134
826.00  -2.01052172   0.46652809
828.00  -2.03900046   0.46991102
830.00  -2.06754636   0.47331016
832.00  -2.09615941   0.47672555
834.00  -2.12483958   0.48015723
836.00  -2.15358688   0.48360523
838.00  -2.18240128   0.48706960
840.00  -2.21128278   0.49055036
842.00  -2.24023136   0.49404756
844.00  -2.26924701   0.49756124
846.00  -2.29832972   0.50109143
848.00  -2.32747947   0.50463816
850.00  -2.35669625   0.50820149
852.00  -2.38598006   0.51178143
854.00  -2.41533087   0.51537804
856.00  -2.44474868   0.51899135
858.00  -2.47423346   0.52262140
860.00  -2.50378522   0.52626822
862.00  -2.53340394   0.52993185
864.00  -2.56308959   0.53361233
866.00  -2.59284218   0.53730969
868.00  -2.62266169   0.54102398
870.00  -2.65254811   0.54475522
872.00  -2.68250141   0.54850347
874.00  -2.71252160   0.55226875
876.00  -2.74260865   0.55605110
878.00  -2.77276256   0.55985057
880.00  -2.80298331   0.56366717
882.00  -2.83327088   0.56750097
884.00  -2.86362528   0.57135198
886.00  -2.89404647   0.57522025
888.00  -2.92453445   0.57910582
890.00  -2.95508921   0.58300872
892.00  -2.98571073   0.58692899
894.00  -3.01639901   0.59086667
896.00  -3.04715401   0.59482179
898.00  -3.07797575   0.59879439
900.00  -3.10886419   0.60278452
902.00  -3.13981933   0.60679219
904.00  -3.17084115   0.61081746
906.00  -3.20192965   0.61486036
908.00  -3.23308480   0.61892093
910.00  -3.26430659   0.62299920
912.00  -3.29559502   0.62709521
914.00  -3.32695006   0.63120900
916.00  -3.35837170   0.63534060
918.00  -3.38985994   0.63949006
920.00  -3.42141475   0.64365741
922.00  -3.45303612   0.64784268
924.00  -3.48472405   0.65204591
926.00  -3.51647851   0.65626715
928.00  -3.54829949   0.66050642
930.00  -3.58018698   0.66476376
932.00  -3.61214097   0.66903922
934.00  -3.64416144   0.67333282
936.00  -3.67624838   0.67764461
938.00  -3.70840177   0.68197462
940.00  -3.74062160   0.68632288
942.00  -3.77290785   0.69068944
944.00  -3.80526052   0.69507434
946.00  -3.83767959   0.69947760
948.00  -3.87016504   0.70389927
950.00  -3.90271687   0.70833938
952.00  -3.93533505   0.71279797
954.00  -3.96801957   0.71727508
956.00  -4.00077042   0.72177073
958.00  -4.03358759   0.72628498
960.00  -4.06647106   0.73081786
962.00  -4.09942082   0.73536939
964.00  -4.13243685   0.73993963
966.00  -4.16551914   0.74452860
968.00  -4.19866767   0.74913635
970.00  -4.23188244   0.75376290
972.00  -4.26516342   0.75840830
974.00  -4.29851060   0.76307259
976.00  -4.33192397   0.76775579
978.00  -4.36540351   0.77245795
980.00  -4.39894922   0.77717911
982.00  -4.43256107   0.78191929
984.00  -4.46623905   0.78667854
986.00  -4.49998314   0.79145689
988.00  -4.53379334   0.79625438
990.00  -4.56766962   0.80107104
992.00  -4.60161198   0.80590692
994.00  -4.63562040   0.81076205
996.00  -4.66969486   0.81563646
998.00  -4.70383535   0.82053019
1000.00  -4.73804186   0.82544328
1002.00  -4.77231436   0.83037577
1004.00  -4.80665285   0.83532769
1006.00  -4.84105732   0.84029907
1008.00  -4.87552774   0.84528996
1010.00  -4.91006410   0.85030038
1012.00  -4.94466638   0.85533039
1014.00  -4.97933458   0.86038001
1016.00  -5.01406868   0.86544927
1018.00  -5.04886866   0.87053823
1020.00  -5.08373451   0.87564690
1022.00  -5.11866621   0.88077533
1024.00  -5.15366375   0.88592356
1026.00  -5.18872711   0.89109162
1028.00  -5.22385629   0.89627954
1030.00  -5.25905125   0.90148737
1032.00  -5.29431199   0.90671514
1034.00  -5.32963850   0.91196288
1036.00  -5.36503075   0.91723064
1038.00  -5.40048874   0.92251845
1040.00  -5.43601245   0.92782633
1042.00  -5.47160186   0.93315434
1044.00  -5.50725695   0.93850251
1046.00  -5.54297772   0.94387087
1048.00  -5.57876415   0.94925946
1050.00  -5.61461622   0.95466831
1052.00  -5.65053391   0.96009747
1054.00  -5.68651722   0.96554696
1056.00  -5.72256613   0.97101683
1058.00  -5.75868061   0.97650710
1060.00  -5.79486066   0.98201782
1062.00  -5.83110627   0.98754903
1064.00  -5.86741740   0.99310075
1066.00  -5.90379406   0.99867302
1068.00  -5.94023622   1.00426589
1070.00  -5.97674387   1.00987938
1072.00  -6.01331699   1.01551353
1074.00  -6.04995557   1.02116838
1076.00  -6.08665959   1.02684396
1078.00  -6.12342904   1.03254031
1080.00  -6.16026390   1.03825747
1082.00  -6.19716415   1.04399546
1084.00  -6.23412979   1.04975434
1086.00  -6.27116079   1.05553413
1088.00  -6.30825713   1.06133486
1090.00  -6.34541881   1.06715658
1092.00  -6.38264580   1.07299932
1094.00  -6.41993810   1.07886312
1096.00  -6.45729568   1.08474801
1098.00  -6.49471853   1.09065403
1100.00  -6.53220663   1.09658121
1102.00  -6.56975997   1.10252959
1104.00  -6.60737854   1.10849920
1106.00  -6.64506230   1.11449009
1108.00  -6.68281126   1.12050228
1110.00  -6.72062539   1.12653581
1112.00  -6.75850468   1.13259073
1114.00  -6.79644911   1.13866705
1116.00  -6.83445866   1.14476482
1118.00  -6.87253333   1.15088408
1120.00  -6.91067308   1.15702486
1122.00  -6.94887792   1.16318720
1124.00  -6.98714781   1.16937112
1126.00  -7.02548275   1.17557667
1128.00  -7.06388272   1.18180389
1130.00  -7.10234770   1.18805280
1132.00  -7.14087768   1.19432345
1134.00  -7.17947263   1.20061586
1136.00  -7.21813255   1.20693008
1138.00  -7.25685742   1.21326614
1140.00  -7.29564721   1.21962408
1142.00  -7.33450192   1.22600393
1144.00  -7.37342153   1.23240572
1146.00  -7.41240602   1.23882949
1148.00  -7.45145537   1.24527528
1150.00  -7.49056957   1.25174313
1152.00  -7.52974860   1.25823306
1154.00  -7.56899245   1.26474511
1156.00  -7.60830110   1.27127932
1158.00  -7.64767453   1.27783573
1160.00  -7.68711272   1.28441437
1162.00  -7.72661566   1.29101527
1164.00  -7.76618334   1.29763847
1166.00  -7.80581573   1.30428400
1168.00  -7.84551281   1.31095191
1170.00  -7.88527458   1.31764222
1172.00  -7.92510102   1.32435497
1174.00  -7.96499210   1.33109019
1176.00  -8.00494781   1.33784793
1178.00  -8.04496814   1.34462821
1180.00  -8.08505306   1.35143108
1182.00  -8.12520257   1.35825656
1184.00  -8.16541664   1.36510469
1186.00  -8.20569525   1.37197551
1188.00  -8.24603840   1.37886905
1190.00  -8.28644606   1.38578535
1192.00  -8.32691821   1.39272444
1194.00  -8.36745484   1.39968635
1196.00  -8.40805594   1.40667113
1198.00  -8.44872148   1.41367881
1200.00  -8.48945144   1.42070941
1202.00  -8.53024582   1.42776299
1204.00  -8.57110458   1.43483956
1206.00  -8.61202773   1.44193917
1208.00  -8.65301523   1.44906185
1210.00  -8.69406707   1.45620764
1212.00  -8.73518324   1.46337657
1214.00  -8.77636371   1.47056868
1216.00  -8.81760847   1.47778400
1218.00  -8.85891751   1.48502256
1220.00  -8.90029080   1.49228441
1222.00  -8.94172832   1.49956957
1224.00  -8.98323007   1.50687808
1226.00  -9.02479601   1.51420997
1228.00  -9.06642615   1.52156529
1230.00  -9.10812044   1.52894406
1232.00  -9.14987889   1.53634631
1234.00  -9.19170147   1.54377210
1236.00  -9.23358817   1.55122144
1238.00  -9.27553896   1.55869437
1240.00  -9.31755383   1.56619094
1242.00  -9.35963276   1.57371116
1244.00  -9.40177574   1.58125509
1246.00  -9.44398274   1.58882274
1248.00  -9.48625375   1.59641416
1250.00  -9.52858875   1.60402939
1252.00  -9.57098773   1.61166845
1254.00  -9.61345066   1.61933137
1256.00  -9.65597752   1.62701821
1258.00  -9.69856831   1.63472898
1260.00  -9.74122300   1.64246373
1262.00  -9.78394157   1.65022248
1264.00  -9.82672400   1.65800528
1266.00  -9.86957029   1.66581216
1268.00  -9.91248040   1.67364314
1270.00  -9.95545433   1.68149827
1272.00  -9.99849205   1.68937759
1274.00 -10.04159354   1.69728111
1276.00 -10.08475879   1.70520889
1278.00 -10.12798779   1.71316095
1280.00 -10.17128050   1.72113733
1282.00 -10.21463691   1.72913806
1284.00 -10.25805702   1.73716318
1286.00 -10.30154078   1.74521271
1288.00 -10.34508820   1.75328670
1290.00 -10.38869925   1.76138519
1292.00 -10.43237391   1.76950819
1294.00 -10.47611216   1.77765575
1296.00 -10.51991399   1.78582791
1298.00 -10.56377938   1.79402469
