wavelength(nm)         real         imag
100.00   3.75265192   0.00140804
102.00   3.74669963   0.00149422
104.00   3.74062951   0.00158385
106.00   3.73444157   0.00167698
108.00   3.72813581   0.00177370
110.00   3.72171224   0.00187407
112.00   3.71517086   0.00197816
114.00   3.70851168   0.00208602
116.00   3.70173468   0.00219774
118.00   3.69483989   0.00231338
120.00   3.68782729   0.00243300
122.00   3.68069690   0.00255668
124.00   3.67344872   0.00268448
126.00   3.66608274   0.00281647
128.00   3.65859898   0.00295271
130.00   3.65099744   0.00309328
132.00   3.64327811   0.00323824
134.00   3.63544101   0.00338766
136.00   3.62748614   0.00354160
138.00   3.61941349   0.00370014
140.00   3.61122308   0.00386334
142.00   3.60291491   0.00403126
144.00   3.59448897   0.00420399
146.00   3.58594529   0.00438157
148.00   3.57728385   0.00456409
150.00   3.56850466   0.00475161
152.00   3.55960773   0.00494419
154.00   3.55059306   0.00514191
156.00   3.54146065   0.00534482
158.00   3.53221051   0.00555301
160.00   3.52284264   0.00576653
162.00   3.51335705   0.00598545
164.00   3.50375374   0.00620985
166.00   3.49403271   0.00643978
168.00   3.48419397   0.00667532
170.00   3.47423753   0.00691653
172.00   3.46416338   0.00716348
174.00   3.45397153   0.00741624
176.00   3.44366199   0.00767487
178.00   3.43323476   0.00793945
180.00   3.42268985   0.00821004
182.00   3.41202726   0.00848670
184.00   3.40124699   0.00876951
186.00   3.39034905   0.00905853
188.00   3.37933344   0.00935383
190.00   3.36820017   0.00965548
192.00   3.35694925   0.00996354
194.00   3.34558067   0.01027808
196.00   3.33409445   0.01059917
198.00   3.32249059   0.01092688
200.00   3.31076909   0.01126127
202.00   3.29892996   0.01160241
204.00   3.28697321   0.01195038
206.00   3.27489883   0.01230522
208.00   3.26270684   0.01266702
210.00   3.25039723   0.01303584
212.00   3.23797003   0.01341175
214.00   3.22542522   0.01379481
216.00   3.21276282   0.01418510
218.00   3.19998283   0.01458267
220.00   3.18708526   0.01498760
222.00   3.17407012   0.01539996
224.00   3.16093740   0.01581981
226.00   3.14768711   0.01624721
228.00   3.13431927   0.01668225
230.00   3.12083387   0.01712497
232.00   3.10723093   0.01757546
234.00   3.09351044   0.01803377
236.00   3.07967242   0.01849998
238.00   3.06571686   0.01897415
240.00   3.05164379   0.01945635
242.00   3.03745319   0.01994665
244.00   3.02314508   0.02044511
246.00   3.00871947   0.02095181
248.00   2.99417636   0.02146680
250.00   2.97951576   0.02199016
252.00   2.96473767   0.02252195
254.00   2.94984210   0.02306224
256.00   2.93482906   0.02361110
258.00   2.91969855   0.02416859
260.00   2.90445058   0.02473478
262.00   2.88908516   0.02530975
264.00   2.87360229   0.02589355
266.00   2.85800198   0.02648625
268.00   2.84228424   0.02708792
270.00   2.82644908   0.02769863
272.00   2.81049649   0.02831845
274.00   2.79442649   0.02894744
276.00   2.77823909   0.02958566
278.00   2.76193429   0.03023320
280.00   2.74551209   0.03089010
282.00   2.72897252   0.03155645
284.00   2.71231556   0.03223230
286.00   2.69554124   0.03291773
288.00   2.67864956   0.03361280
290.00   2.66164052   0.03431758
292.00   2.64451414   0.03503214
294.00   2.62727041   0.03575653
296.00   2.60990935   0.03649084
298.00   2.59243097   0.03723513
300.00   2.57483527   0.03798945
302.00   2.55712227   0.03875389
304.00   2.53929196   0.03952851
306.00   2.52134436   0.04031338
308.00   2.50327947   0.04110855
310.00   2.48509730   0.04191411
312.00   2.46679787   0.04273011
314.00   2.44838117   0.04355662
316.00   2.42984722   0.04439371
318.00   2.41119602   0.04524146
320.00   2.39242759   0.04609991
322.00   2.37354192   0.04696915
324.00   2.35453904   0.04784923
326.00   2.33541894   0.04874023
328.00   2.31618164   0.04964222
330.00   2.29682714   0.05055525
332.00   2.27735545   0.05147939
334.00   2.25776659   0.05241472
336.00   2.23806055   0.05336130
338.00   2.21823736   0.05431920
340.00   2.19829701   0.05528848
342.00   2.17823951   0.05626920
344.00   2.15806488   0.05726145
346.00   2.13777312   0.05826528
348.00   2.11736425   0.05928076
350.00   2.09683826   0.06030796
352.00   2.07619518   0.06134695
354.00   2.05543500   0.06239778
356.00   2.03455774   0.06346054
358.00   2.01356341   0.06453528
360.00   1.99245201   0.06562207
362.00   1.97122356   0.06672098
364.00   1.94987807   0.06783207
366.00   1.92841554   0.06895542
368.00   1.90683598   0.07009109
370.00   1.88513940   0.07123914
372.00   1.86332582   0.07239964
374.00   1.84139524   0.07357267
376.00   1.81934767   0.07475828
378.00   1.79718312   0.07595654
380.00   1.77490160   0.07716753
382.00   1.75250313   0.07839129
384.00   1.72998770   0.07962792
386.00   1.70735533   0.08087746
388.00   1.68460603   0.08213999
390.00   1.66173982   0.08341557
392.00   1.63875669   0.08470427
394.00   1.61565666   0.08600616
396.00   1.59243974   0.08732130
398.00   1.56910594   0.08864976
400.00   1.54565528   0.08999160
402.00   1.52208775   0.09134690
404.00   1.49840337   0.09271572
406.00   1.47460216   0.09409812
408.00   1.45068411   0.09549418
410.00   1.42664925   0.09690395
412.00   1.40249758   0.09832752
414.00   1.37822911   0.09976493
416.00   1.35384386   0.10121626
418.00   1.32934183   0.10268158
420.00   1.30472304   0.10416095
422.00   1.27998749   0.10565444
424.00   1.25513520   0.10716211
426.00   1.23016617   0.10868404
428.00   1.20508042   0.11022028
430.00   1.17987797   0.11177091
432.00   1.15455881   0.11333599
434.00   1.12912296   0.11491558
436.00   1.10357044   0.11650976
438.00   1.07790124   0.11811859
440.00   1.05211540   0.11974214
442.00   1.02621291   0.12138046
444.00   1.00019378   0.12303364
446.00   0.97405804   0.12470174
448.00   0.94780568   0.12638481
450.00   0.92143672   0.12808294
452.00   0.89495118   0.12979618
454.00   0.86834906   0.13152460
456.00   0.84163038   0.13326827
458.00   0.81479515   0.13502725
460.00   0.78784337   0.13680161
462.00   0.76077507   0.13859142
464.00   0.73359025   0.14039674
466.00   0.70628892   0.14221764
468.00   0.67887110   0.14405419
470.00   0.65133680   0.14590645
472.00   0.62368603   0.14777448
474.00   0.59591880   0.14965836
476.00   0.56803512   0.15155815
478.00   0.54003501   0.15347392
480.00   0.51191848   0.15540573
482.00   0.48368555   0.15735365
484.00   0.45533621   0.15931774
486.00   0.42687049   0.16129807
488.00   0.39828840   0.16329472
490.00   0.36958995   0.16530773
492.00   0.34077516   0.16733719
494.00   0.31184402   0.16938315
496.00   0.28279657   0.17144568
498.00   0.25363281   0.17352485
500.00   0.22435275   0.17562072
502.00   0.19495641   0.17773337
504.00   0.16544380   0.17986285
506.00   0.13581493   0.18200923
508.00   0.10606981   0.18417258
510.00   0.07620846   0.18635297
512.00   0.04623089   0.18855046
514.00   0.01613712   0.19076511
516.00  -0.01407285   0.19299699
518.00  -0.04439899   0.19524617
520.00  -0.07484130   0.19751272
522.00  -0.10539977   0.19979670
524.00  -0.13607438   0.20209817
526.00  -0.16686511   0.20441721
528.00  -0.19777196   0.20675387
530.00  -0.22879490   0.20910822
532.00  -0.25993394   0.21148034
534.00  -0.29118904   0.21387028
536.00  -0.32256021   0.21627811
538.00  -0.35404742   0.21870390
540.00  -0.38565066   0.22114772
542.00  -0.41736992   0.22360962
544.00  -0.44920519   0.22608968
546.00  -0.48115644   0.22858795
548.00  -0.51322368   0.23110452
550.00  -0.54540687   0.23363943
552.00  -0.57770602   0.23619276
554.00  -0.61012110   0.23876458
556.00  -0.64265210   0.24135495
558.00  -0.67529900   0.24396393
560.00  -0.70806180   0.24659159
562.00  -0.74094048   0.24923799
564.00  -0.77393502   0.25190321
566.00  -0.80704541   0.25458731
568.00  -0.84027163   0.25729035
570.00  -0.87361368   0.26001240
572.00  -0.90707153   0.26275352
574.00  -0.94064517   0.26551379
576.00  -0.97433459   0.26829326
578.00  -1.00813978   0.27109200
580.00  -1.04206071   0.27391007
582.00  -1.07609737   0.27674755
584.00  -1.11024975   0.27960450
586.00  -1.14451784   0.28248098
588.00  -1.17890161   0.28537706
590.00  -1.21340106   0.28829280
592.00  -1.24801616   0.29122828
594.00  -1.28274691   0.29418355
596.00  -1.31759329   0.29715868
598.00  -1.35255528   0.30015373
600.00  -1.38763287   0.30316878
602.00  -1.42282605   0.30620389
604.00  -1.45813479   0.30925911
606.00  -1.49355908   0.31233453
608.00  -1.52909891   0.31543020
610.00  -1.56475426   0.31854618
612.00  -1.60052511   0.32168255
614.00  -1.63641146   0.32483937
616.00  -1.67241329   0.32801671
618.00  -1.70853057   0.33121462
620.00  -1.74476329   0.33443318
622.00  -1.78111145   0.33767245
624.00  -1.81757501   0.34093249
626.00  -1.85415397   0.34421338
628.00  -1.89084832   0.34751517
630.00  -1.92765803   0.35083793
632.00  -1.96458308   0.35418173
634.00  -2.00162347   0.35754663
636.00  -2.03877918   0.36093270
638.00  -2.07605018   0.36434000
640.00  -2.11343647   0.36776859
642.00  -2.15093803   0.37121855
644.00  -2.18855484   0.37468993
646.00  -2.22628689   0.37818281
648.00  -2.26413415   0.38169724
650.00  -2.30209662   0.38523330
652.00  -2.34017428   0.38879104
654.00  -2.37836710   0.39237054
656.00  -2.41667508   0.39597185
658.00  -2.45509819   0.39959504
660.00  -2.49363643   0.40324019
662.00  -2.53228977   0.40690734
664.00  -2.57105819   0.41059657
666.00  -2.60994169   0.41430794
668.00  -2.64894023   0.41804153
670.00  -2.68805382   0.42179738
672.00  -2.72728242   0.42557557
674.00  -2.76662603   0.42937616
676.00  -2.80608462   0.43319921
678.00  -2.84565818   0.43704480
680.00  -2.88534669   0.44091298
682.00  -2.92515013   0.44480383
684.00  -2.96506849   0.44871740
686.00  -3.00510175   0.45265376
688.00  -3.04524989   0.45661298
690.00  -3.08551290   0.46059511
692.00  -3.12589075   0.46460023
694.00  -3.16638344   0.46862840
696.00  -3.20699093   0.47267968
698.00  -3.24771322   0.47675414
700.00  -3.28855029   0.48085185
702.00  -3.32950212   0.48497286
704.00  -3.37056868   0.48911724
706.00  -3.41174998   0.49328507
708.00  -3.45304597   0.49747639
710.00  -3.49445666   0.50169128
712.00  -3.53598202   0.50592980
714.00  -3.57762203   0.51019201
716.00  -3.61937667   0.51447799
718.00  -3.66124593   0.51878778
720.00  -3.70322979   0.52312147
722.00  -3.74532823   0.52747911
724.00  -3.78754123   0.53186077
726.00  -3.82986877   0.53626651
728.00  -3.87231084   0.54069640
730.00  -3.91486742   0.54515049
732.00  -3.95753849   0.54962886
734.00  -4.00032402   0.55413157
736.00  -4.04322401   0.55865869
738.00  -4.08623843   0.56321027
740.00  -4.12936726   0.56778639
742.00  -4.17261050   0.57238710
744.00  -4.21596810   0.57701247
746.00  -4.25944007   0.58166257
748.00  -4.30302638   0.58633746
750.00  -4.34672701   0.59103720
752.00  -4.39054194   0.59576186
754.00  -4.43447115   0.60051150
756.00  -4.47851463   0.60528618
758.00  -4.52267235   0.61008598
760.00  -4.56694430   0.61491095
762.00  -4.61133046   0.61976116
764.00  -4.65583081   0.62463668
766.00  -4.70044532   0.62953755
768.00  -4.74517398   0.63446386
770.00  -4.79001678   0.63941567
772.00  -4.83497368   0.64439303
774.00  -4.88004468   0.64939602
776.00  -4.92522975   0.65442469
778.00  -4.97052887   0.65947911
780.00  -5.01594202   0.66455935
782.00  -5.06146919   0.66966547
784.00  -5.10711035   0.67479752
786.00  -5.15286549   0.67995559
788.00  -5.19873458   0.68513972
790.00  -5.24471760   0.69034999
792.00  -5.29081454   0.69558646
794.00  -5.33702538   0.70084919
796.00  -5.38335009   0.70613824
798.00  -5.42978866   0.71145368
800.00  -5.47634106   0.71679558
802.00  -5.52300727   0.72216399
804.00  -5.56978728   0.72755898
806.00  -5.61668107   0.73298062
808.00  -5.66368861   0.73842896
810.00  -5.71080989   0.74390408
812.00  -5.75804488   0.74940603
814.00  -5.80539356   0.75493488
816.00  -5.85285592   0.76049069
818.00  -5.90043193   0.76607353
820.00  -5.94812157   0.77168345
822.00  -5.99592482   0.77732053
824.00  -6.04384167   0.78298483
826.00  -6.09187209   0.78867640
828.00  -6.14001605   0.79439532
830.00  -6.18827355   0.80014165
832.00  -6.23664456   0.80591544
834.00  -6.28512905   0.81171677
836.00  -6.33372701   0.81754570
838.00  -6.38243842   0.82340229
840.00  -6.43126325   0.82928660
842.00  -6.48020149   0.83519870
844.00  -6.52925310   0.84113865
846.00  -6.57841809   0.84710651
848.00  -6.62769641   0.85310235
850.00  -6.67708805   0.85912623
852.00  -6.72659299   0.86517822
854.00  -6.77621121   0.87125837
856.00  -6.82594268   0.87736675
858.00  -6.87578739   0.88350342
860.00  -6.92574532   0.88966845
862.00  -6.97581643   0.89586190
864.00  -7.02600071   0.90208384
866.00  -7.07629815   0.90833431
868.00  -7.12670871   0.91461340
870.00  -7.17723237   0.92092116
872.00  -7.22786912   0.92725766
874.00  -7.27861893   0.93362295
876.00  -7.32948178   0.94001710
878.00  -7.38045765   0.94644018
880.00  -7.43154652   0.95289224
882.00  -7.48274836   0.95937336
884.00  -7.53406315   0.96588359
886.00  -7.58549088   0.97242299
888.00  -7.63703151   0.97899163
890.00  -7.68868503   0.98558957
892.00  -7.74045141   0.99221688
894.00  -7.79233064   0.99887361
896.00  -7.84432268   1.00555984
898.00  -7.89642753   1.01227561
900.00  -7.94864514   1.01902101
902.00  -8.00097551   1.02579608
904.00  -8.05341862   1.03260089
906.00  -8.10597442   1.03943550
908.00  -8.15864292   1.04629998
910.00  -8.21142408   1.05319439
912.00  -8.26431787   1.06011879
914.00  -8.31732429   1.06707325
916.00  -8.37044330   1.07405782
918.00  -8.42367488   1.08107257
920.00  -8.47701901   1.08811756
922.00  -8.53047567   1.09519286
924.00  -8.58404483   1.10229852
926.00  -8.63772647   1.10943461
928.00  -8.69152057   1.11660120
930.00  -8.74542710   1.12379834
932.00  -8.79944605   1.13102609
934.00  -8.85357738   1.13828452
936.00  -8.90782108   1.14557370
938.00  -8.96217712   1.15289368
940.00  -9.01664548   1.16024452
942.00  -9.07122614   1.16762630
944.00  -9.12591906   1.17503906
946.00  -9.18072424   1.18248288
948.00  -9.23564164   1.18995781
950.00  -9.29067124   1.19746392
952.00  -9.34581302   1.20500126
954.00  -9.40106696   1.21256991
956.00  -9.45643302   1.22016993
958.00  -9.51191120   1.22780137
960.00  -9.56750145   1.23546429
962.00  -9.62320377   1.24315877
964.00  -9.67901812   1.25088486
966.00  -9.73494449   1.25864262
968.00  -9.79098284   1.26643212
970.00  -9.84713316   1.27425342
972.00  -9.90339542   1.28210658
974.00  -9.95976959   1.28999166
976.00 -10.01625566   1.29790872
978.00 -10.07285360   1.30585783
980.00 -10.12956338   1.31383905
982.00 -10.18638497   1.32185243
984.00 -10.24331837   1.32989805
986.00 -10.30036353   1.33797596
988.00 -10.35752045   1.34608623
990.00 -10.41478908   1.35422891
992.00 -10.47216941   1.36240407
994.00 -10.52966142   1.37061178
996.00 -10.58726508   1.37885208
998.00 -10.64498036   1.38712505
1000.00 -10.70280723   1.39543074
1002.00 -10.76074569   1.40376922
1004.00 -10.81879569   1.41214055
1006.00 -10.87695723   1.42054479
1008.00 -10.93523026   1.42898200
1010.00 -10.99361476   1.43745224
1012.00 -11.05211072   1.44595558
1014.00 -11.11071811   1.45449207
1016.00 -11.16943689   1.46306178
1018.00 -11.22826706   1.47166477
1020.00 -11.28720857   1.48030110
1022.00 -11.34626141   1.48897084
1024.00 -11.40542555   1.49767403
1026.00 -11.46470097   1.50641075
1028.00 -11.52408763   1.51518106
1030.00 -11.58358553   1.52398501
1032.00 -11.64319462   1.53282267
1034.00 -11.70291488   1.54169411
1036.00 -11.76274630   1.55059937
1038.00 -11.82268884   1.55953852
1040.00 -11.88274247   1.56851163
1042.00 -11.94290718   1.57751875
1044.00 -12.00318294   1.58655995
1046.00 -12.06356972   1.59563529
1048.00 -12.12406749   1.60474482
1050.00 -12.18467623   1.61388861
1052.00 -12.24539592   1.62306672
1054.00 -12.30622652   1.63227921
1056.00 -12.36716802   1.64152615
1058.00 -12.42822038   1.65080758
1060.00 -12.48938359   1.66012358
1062.00 -12.55065761   1.66947421
1064.00 -12.61204241   1.67885952
1066.00 -12.67353798   1.68827958
1068.00 -12.73514429   1.69773444
1070.00 -12.79686130   1.70722417
1072.00 -12.85868900   1.71674883
1074.00 -12.92062736   1.72630848
1076.00 -12.98267635   1.73590318
1078.00 -13.04483594   1.74553300
1080.00 -13.10710611   1.75519798
1082.00 -13.16948684   1.76489820
1084.00 -13.23197809   1.77463371
1086.00 -13.29457983   1.78440457
1088.00 -13.35729205   1.79421085
1090.00 -13.42011472   1.80405260
1092.00 -13.48304781   1.81392989
1094.00 -13.54609129   1.82384277
1096.00 -13.60924513   1.83379131
1098.00 -13.67250931   1.84377557
1100.00 -13.73588381   1.85379560
1102.00 -13.79936859   1.86385148
1104.00 -13.86296363   1.87394325
1106.00 -13.92666890   1.88407097
1108.00 -13.99048437   1.89423472
1110.00 -14.05441002   1.90443455
1112.00 -14.11844583   1.91467052
1114.00 -14.18259175   1.92494268
1116.00 -14.24684777   1.93525111
1118.00 -14.31121386   1.94559585
1120.00 -14.37568999   1.95597698
1122.00 -14.44027614   1.96639455
1124.00 -14.50497227   1.97684861
1126.00 -14.56977836   1.98733924
1128.00 -14.63469439   1.99786649
1130.00 -14.69972031   2.00843042
1132.00 -14.76485612   2.01903109
1134.00 -14.83010177   2.02966857
1136.00 -14.89545725   2.04034290
1138.00 -14.96092252   2.05105415
1140.00 -15.02649756   2.06180239
1142.00 -15.09218233   2.07258766
1144.00 -15.15797682   2.08341004
1146.00 -15.22388099   2.09426958
1148.00 -15.28989481   2.10516633
1150.00 -15.35601826   2.11610037
1152.00 -15.42225131   2.12707175
1154.00 -15.48859394   2.13808053
1156.00 -15.55504610   2.14912676
1158.00 -15.62160778   2.16021052
1160.00 -15.68827895   2.17133185
1162.00 -15.75505958   2.18249082
1164.00 -15.82194964   2.19368749
1166.00 -15.88894909   2.20492192
1168.00 -15.95605793   2.21619417
1170.00 -16.02327611   2.22750429
1172.00 -16.09060361   2.23885235
1174.00 -16.15804039   2.25023840
1176.00 -16.22558644   2.26166251
1178.00 -16.29324172   2.27312474
1180.00 -16.36100620   2.28462514
1182.00 -16.42887986   2.29616377
1184.00 -16.49686266   2.30774069
1186.00 -16.56495458   2.31935597
1188.00 -16.63315559   2.33100966
1190.00 -16.70146566   2.34270181
1192.00 -16.76988476   2.35443250
1194.00 -16.83841286   2.36620178
1196.00 -16.90704994   2.37800971
1198.00 -16.97579596   2.38985634
1200.00 -17.04465090   2.40174174
1202.00 -17.11361472   2.41366597
1204.00 -17.18268740   2.42562908
1206.00 -17.25186891   2.43763113
1208.00 -17.32115922   2.44967219
1210.00 -17.39055830   2.46175231
1212.00 -17.46006612   2.47387155
1214.00 -17.52968265   2.48602997
1216.00 -17.59940786   2.49822763
1218.00 -17.66924173   2.51046459
1220.00 -17.73918422   2.52274090
1222.00 -17.80923530   2.53505663
1224.00 -17.87939495   2.54741184
1226.00 -17.94966314   2.55980657
1228.00 -18.02003983   2.57224090
1230.00 -18.09052499   2.58471488
1232.00 -18.16111860   2.59722857
1234.00 -18.23182063   2.60978202
1236.00 -18.30263105   2.62237531
1238.00 -18.37354982   2.63500847
1240.00 -18.44457692   2.64768159
1242.00 -18.51571232   2.66039470
1244.00 -18.58695598   2.67314787
1246.00 -18.65830788   2.68594117
1248.00 -18.72976799   2.69877464
1250.00 -18.80133628   2.71164835
1252.00 -18.87301272   2.72456235
1254.00 -18.94479727   2.73751671
1256.00 -19.01668991   2.75051148
1258.00 -19.08869061   2.76354671
1260.00 -19.16079933   2.77662248
1262.00 -19.23301605   2.78973883
1264.00 -19.30534074   2.80289583
1266.00 -19.37777336   2.81609353
1268.00 -19.45031389   2.82933199
1270.00 -19.52296229   2.84261127
1272.00 -19.59571854   2.85593143
1274.00 -19.66858260   2.86929253
1276.00 -19.74155445   2.88269461
1278.00 -19.81463405   2.89613775
1280.00 -19.88782137   2.90962200
1282.00 -19.96111638   2.92314742
1284.00 -20.03451906   2.93671406
1286.00 -20.10802936   2.95032199
1288.00 -20.18164727   2.96397126
1290.00 -20.25537274   2.97766192
1292.00 -20.32920575   2.99139405
1294.00 -20.40314627   3.00516769
1296.00 -20.47719426   3.01898290
1298.00 -20.55134970   3.03283975
