wavelength(nm)         real         imag
100.00   3.83408117   0.00062991
102.00   3.83141830   0.00066847
104.00   3.82870272   0.00070856
106.00   3.82593443   0.00075023
108.00   3.82311344   0.00079350
110.00   3.82023974   0.00083840
112.00   3.81731334   0.00088496
114.00   3.81433423   0.00093322
116.00   3.81130242   0.00098320
118.00   3.80821790   0.00103493
120.00   3.80508069   0.00108845
122.00   3.80189078   0.00114378
124.00   3.79864818   0.00120095
126.00   3.79535287   0.00126000
128.00   3.79200488   0.00132095
130.00   3.78860419   0.00138383
132.00   3.78515081   0.00144868
134.00   3.78164474   0.00151553
136.00   3.77808598   0.00158440
138.00   3.77447454   0.00165532
140.00   3.77081041   0.00172833
142.00   3.76709360   0.00180346
144.00   3.76332410   0.00188073
146.00   3.75950193   0.00196018
148.00   3.75562708   0.00204183
150.00   3.75169955   0.00212572
152.00   3.74771935   0.00221187
154.00   3.74368647   0.00230033
156.00   3.73960092   0.00239110
158.00   3.73546270   0.00248424
160.00   3.73127182   0.00257976
162.00   3.72702827   0.00267770
164.00   3.72273205   0.00277809
166.00   3.71838317   0.00288095
168.00   3.71398164   0.00298632
170.00   3.70952744   0.00309423
172.00   3.70502059   0.00320471
174.00   3.70046108   0.00331779
176.00   3.69584892   0.00343349
178.00   3.69118411   0.00355186
180.00   3.68646665   0.00367291
182.00   3.68169655   0.00379668
184.00   3.67687380   0.00392320
186.00   3.67199841   0.00405250
188.00   3.66707038   0.00418461
190.00   3.66208971   0.00431955
192.00   3.65705640   0.00445737
194.00   3.65197046   0.00459809
196.00   3.64683189   0.00474173
198.00   3.64164070   0.00488834
200.00   3.63639687   0.00503793
202.00   3.63110042   0.00519055
204.00   3.62575135   0.00534622
206.00   3.62034966   0.00550496
208.00   3.61489535   0.00566682
210.00   3.60938843   0.00583182
212.00   3.60382889   0.00599999
214.00   3.59821674   0.00617136
216.00   3.59255199   0.00634596
218.00   3.58683463   0.00652382
220.00   3.58106467   0.00670498
222.00   3.57524211   0.00688945
224.00   3.56936695   0.00707728
226.00   3.56343919   0.00726849
228.00   3.55745884   0.00746310
230.00   3.55142591   0.00766117
232.00   3.54534038   0.00786270
234.00   3.53920227   0.00806773
236.00   3.53301158   0.00827630
238.00   3.52676831   0.00848843
240.00   3.52047247   0.00870415
242.00   3.51412405   0.00892350
244.00   3.50772306   0.00914649
246.00   3.50126950   0.00937317
248.00   3.49476337   0.00960356
250.00   3.48820469   0.00983769
252.00   3.48159344   0.01007560
254.00   3.47492964   0.01031731
256.00   3.46821328   0.01056285
258.00   3.46144437   0.01081226
260.00   3.45462292   0.01106555
262.00   3.44774892   0.01132277
264.00   3.44082238   0.01158395
266.00   3.43384330   0.01184910
268.00   3.42681168   0.01211827
270.00   3.41972753   0.01239149
272.00   3.41259085   0.01266877
274.00   3.40540165   0.01295016
276.00   3.39815992   0.01323568
278.00   3.39086567   0.01352537
280.00   3.38351891   0.01381925
282.00   3.37611963   0.01411735
284.00   3.36866784   0.01441971
286.00   3.36116354   0.01472634
288.00   3.35360674   0.01503730
290.00   3.34599744   0.01535259
292.00   3.33833564   0.01567226
294.00   3.33062135   0.01599633
296.00   3.32285456   0.01632484
298.00   3.31503529   0.01665781
300.00   3.30716354   0.01699527
302.00   3.29923930   0.01733726
304.00   3.29126259   0.01768380
306.00   3.28323340   0.01803492
308.00   3.27515175   0.01839066
310.00   3.26701763   0.01875103
312.00   3.25883104   0.01911609
314.00   3.25059200   0.01948584
316.00   3.24230050   0.01986033
318.00   3.23395655   0.02023959
320.00   3.22556015   0.02062363
322.00   3.21711131   0.02101250
324.00   3.20861002   0.02140622
326.00   3.20005630   0.02180483
328.00   3.19145014   0.02220834
330.00   3.18279156   0.02261681
332.00   3.17408055   0.02303024
334.00   3.16531711   0.02344868
336.00   3.15650126   0.02387215
338.00   3.14763299   0.02430068
340.00   3.13871232   0.02473430
342.00   3.12973923   0.02517305
344.00   3.12071374   0.02561695
346.00   3.11163586   0.02606603
348.00   3.10250558   0.02652032
350.00   3.09332291   0.02697986
352.00   3.08408785   0.02744467
354.00   3.07480041   0.02791478
356.00   3.06546059   0.02839022
358.00   3.05606839   0.02887103
360.00   3.04662383   0.02935722
362.00   3.03712690   0.02984884
364.00   3.02757760   0.03034591
366.00   3.01797595   0.03084846
368.00   3.00832194   0.03135652
370.00   2.99861559   0.03187012
372.00   2.98885688   0.03238929
374.00   2.97904584   0.03291407
376.00   2.96918246   0.03344447
378.00   2.95926675   0.03398054
380.00   2.94929871   0.03452229
382.00   2.93927834   0.03506977
384.00   2.92920566   0.03562299
386.00   2.91908066   0.03618200
388.00   2.90890335   0.03674681
390.00   2.89867373   0.03731747
392.00   2.88839181   0.03789399
394.00   2.87805760   0.03847641
396.00   2.86767109   0.03906476
398.00   2.85723229   0.03965908
400.00   2.84674121   0.04025937
402.00   2.83619785   0.04086569
404.00   2.82560221   0.04147806
406.00   2.81495431   0.04209650
408.00   2.80425414   0.04272105
410.00   2.79350170   0.04335174
412.00   2.78269702   0.04398860
414.00   2.77184008   0.04463165
416.00   2.76093089   0.04528093
418.00   2.74996947   0.04593647
420.00   2.73895580   0.04659829
422.00   2.72788991   0.04726643
424.00   2.71677178   0.04794091
426.00   2.70560144   0.04862177
428.00   2.69437887   0.04930904
430.00   2.68310410   0.05000274
432.00   2.67177711   0.05070291
434.00   2.66039792   0.05140957
436.00   2.64896654   0.05212275
438.00   2.63748296   0.05284249
440.00   2.62594719   0.05356881
442.00   2.61435925   0.05430175
444.00   2.60271912   0.05504133
446.00   2.59102682   0.05578758
448.00   2.57928235   0.05654054
450.00   2.56748572   0.05730022
452.00   2.55563693   0.05806667
454.00   2.54373599   0.05883991
456.00   2.53178291   0.05961997
458.00   2.51977768   0.06040689
460.00   2.50772031   0.06120068
462.00   2.49561082   0.06200138
464.00   2.48344919   0.06280903
466.00   2.47123545   0.06362364
468.00   2.45896959   0.06444525
470.00   2.44665162   0.06527389
472.00   2.43428155   0.06610959
474.00   2.42185937   0.06695238
476.00   2.40938511   0.06780229
478.00   2.39685875   0.06865934
480.00   2.38428031   0.06952357
482.00   2.37164980   0.07039501
484.00   2.35896721   0.07127368
486.00   2.34623255   0.07215962
488.00   2.33344584   0.07305285
490.00   2.32060706   0.07395341
492.00   2.30771624   0.07486132
494.00   2.29477338   0.07577662
496.00   2.28177847   0.07669933
498.00   2.26873153   0.07762949
500.00   2.25563257   0.07856711
502.00   2.24248158   0.07951224
504.00   2.22927858   0.08046491
506.00   2.21602357   0.08142513
508.00   2.20271655   0.08239294
510.00   2.18935753   0.08336838
512.00   2.17594653   0.08435146
514.00   2.16248353   0.08534223
516.00   2.14896856   0.08634070
518.00   2.13540160   0.08734692
520.00   2.12178268   0.08836090
522.00   2.10811180   0.08938267
524.00   2.09438896   0.09041228
526.00   2.08061417   0.09144974
528.00   2.06678743   0.09249509
530.00   2.05290875   0.09354835
532.00   2.03897814   0.09460956
534.00   2.02499560   0.09567875
536.00   2.01096114   0.09675594
538.00   1.99687477   0.09784116
540.00   1.98273648   0.09893444
542.00   1.96854630   0.10003582
544.00   1.95430421   0.10114532
546.00   1.94001024   0.10226296
548.00   1.92566438   0.10338879
550.00   1.91126665   0.10452284
552.00   1.89681704   0.10566511
554.00   1.88231557   0.10681566
556.00   1.86776223   0.10797451
558.00   1.85315705   0.10914169
560.00   1.83850002   0.11031722
562.00   1.82379114   0.11150114
564.00   1.80903044   0.11269347
566.00   1.79421790   0.11389425
568.00   1.77935355   0.11510350
570.00   1.76443738   0.11632126
572.00   1.74946940   0.11754755
574.00   1.73444963   0.11878241
576.00   1.71937805   0.12002585
578.00   1.70425469   0.12127792
580.00   1.68907955   0.12253864
582.00   1.67385263   0.12380803
584.00   1.65857394   0.12508614
586.00   1.64324349   0.12637299
588.00   1.62786129   0.12766860
590.00   1.61242734   0.12897301
592.00   1.59694164   0.13028625
594.00   1.58140421   0.13160834
596.00   1.56581505   0.13293932
598.00   1.55017417   0.13427921
600.00   1.53448158   0.13562805
602.00   1.51873727   0.13698586
604.00   1.50294127   0.13835267
606.00   1.48709357   0.13972851
608.00   1.47119418   0.14111342
610.00   1.45524311   0.14250741
612.00   1.43924037   0.14391052
614.00   1.42318596   0.14532278
616.00   1.40707990   0.14674422
618.00   1.39092218   0.14817487
620.00   1.37471281   0.14961475
622.00   1.35845180   0.15106389
624.00   1.34213917   0.15252233
626.00   1.32577490   0.15399010
628.00   1.30935902   0.15546721
630.00   1.29289153   0.15695371
632.00   1.27637244   0.15844962
634.00   1.25980175   0.15995497
636.00   1.24317947   0.16146979
638.00   1.22650561   0.16299410
640.00   1.20978018   0.16452795
642.00   1.19300318   0.16607135
644.00   1.17617461   0.16762433
646.00   1.15929450   0.16918694
648.00   1.14236284   0.17075918
650.00   1.12537964   0.17234110
652.00   1.10834491   0.17393272
654.00   1.09125866   0.17553407
656.00   1.07412089   0.17714518
658.00   1.05693161   0.17876609
660.00   1.03969084   0.18039681
662.00   1.02239856   0.18203738
664.00   1.00505481   0.18368782
666.00   0.98765957   0.18534817
668.00   0.97021286   0.18701845
670.00   0.95271469   0.18869870
672.00   0.93516506   0.19038894
674.00   0.91756399   0.19208921
676.00   0.89991147   0.19379952
678.00   0.88220752   0.19551991
680.00   0.86445215   0.19725042
682.00   0.84664536   0.19899106
684.00   0.82878716   0.20074186
686.00   0.81087755   0.20250287
688.00   0.79291655   0.20427409
690.00   0.77490417   0.20605557
692.00   0.75684040   0.20784734
694.00   0.73872527   0.20964941
696.00   0.72055877   0.21146182
698.00   0.70234091   0.21328461
700.00   0.68407171   0.21511779
702.00   0.66575117   0.21696140
704.00   0.64737929   0.21881547
706.00   0.62895610   0.22068002
708.00   0.61048158   0.22255508
710.00   0.59195576   0.22444069
712.00   0.57337864   0.22633687
714.00   0.55475023   0.22824365
716.00   0.53607053   0.23016105
718.00   0.51733956   0.23208912
720.00   0.49855732   0.23402787
722.00   0.47972382   0.23597734
724.00   0.46083907   0.23793756
726.00   0.44190307   0.23990854
728.00   0.42291584   0.24189033
730.00   0.40387739   0.24388296
732.00   0.38478771   0.24588644
734.00   0.36564683   0.24790081
736.00   0.34645474   0.24992609
738.00   0.32721146   0.25196233
740.00   0.30791699   0.25400953
742.00   0.28857135   0.25606775
744.00   0.26917454   0.25813699
746.00   0.24972656   0.26021730
748.00   0.23022744   0.26230869
750.00   0.21067717   0.26441121
752.00   0.19107577   0.26652487
754.00   0.17142324   0.26864971
756.00   0.15171959   0.27078575
758.00   0.13196483   0.27293302
760.00   0.11215897   0.27509156
762.00   0.09230202   0.27726139
764.00   0.07239398   0.27944254
766.00   0.05243487   0.28163504
768.00   0.03242469   0.28383891
770.00   0.01236346   0.28605419
772.00  -0.00774883   0.28828090
774.00  -0.02791216   0.29051908
776.00  -0.04812652   0.29276875
778.00  -0.06839190   0.29502994
780.00  -0.08870830   0.29730267
782.00  -0.10907570   0.29958699
784.00  -0.12949410   0.30188291
786.00  -0.14996349   0.30419046
788.00  -0.17048386   0.30650968
790.00  -0.19105520   0.30884058
792.00  -0.21167750   0.31118321
794.00  -0.23235076   0.31353759
796.00  -0.25307496   0.31590374
798.00  -0.27385009   0.31828170
800.00  -0.29467615   0.32067150
802.00  -0.31555313   0.32307315
804.00  -0.33648102   0.32548670
806.00  -0.35745980   0.32791217
808.00  -0.37848948   0.33034958
810.00  -0.39957003   0.33279898
812.00  -0.42070146   0.33526037
814.00  -0.44188376   0.33773380
816.00  -0.46311690   0.34021930
818.00  -0.48440089   0.34271688
820.00  -0.50573572   0.34522658
822.00  -0.52712137   0.34774843
824.00  -0.54855784   0.35028246
826.00  -0.57004512   0.35282869
828.00  -0.59158319   0.35538715
830.00  -0.61317206   0.35795787
832.00  -0.63481171   0.36054088
834.00  -0.65650212   0.36313621
836.00  -0.67824330   0.36574389
838.00  -0.70003523   0.36836394
840.00  -0.72187791   0.37099639
842.00  -0.74377131   0.37364128
844.00  -0.76571545   0.37629862
846.00  -0.78771029   0.37896845
848.00  -0.80975584   0.38165080
850.00  -0.83185209   0.38434569
852.00  -0.85399902   0.38705316
854.00  -0.87619663   0.38977322
856.00  -0.89844491   0.39250592
858.00  -0.92074384   0.39525127
860.00  -0.94309342   0.39800931
862.00  -0.96549364   0.40078006
864.00  -0.98794449   0.40356356
866.00  -1.01044596   0.40635982
868.00  -1.03299804   0.40916889
870.00  -1.05560072   0.41199078
872.00  -1.07825398   0.41482552
874.00  -1.10095783   0.41767315
876.00  -1.12371225   0.42053369
878.00  -1.14651723   0.42340717
880.00  -1.16937276   0.42629362
882.00  -1.19227883   0.42919306
884.00  -1.21523544   0.43210553
886.00  -1.23824256   0.43503105
888.00  -1.26130020   0.43796965
890.00  -1.28440834   0.44092136
892.00  -1.30756697   0.44388621
894.00  -1.33077608   0.44686422
896.00  -1.35403566   0.44985542
898.00  -1.37734571   0.45285985
900.00  -1.40070621   0.45587752
902.00  -1.42411715   0.45890847
904.00  -1.44757852   0.46195273
906.00  -1.47109031   0.46501031
908.00  -1.49465252   0.46808126
910.00  -1.51826512   0.47116560
912.00  -1.54192812   0.47426336
914.00  -1.56564150   0.47737456
916.00  -1.58940526   0.48049924
918.00  -1.61321937   0.48363741
920.00  -1.63708383   0.48678912
922.00  -1.66099864   0.48995438
924.00  -1.68496377   0.49313323
926.00  -1.70897923   0.49632569
928.00  -1.73304499   0.49953179
930.00  -1.75716106   0.50275156
932.00  -1.78132741   0.50598503
934.00  -1.80554405   0.50923222
936.00  -1.82981095   0.51249316
938.00  -1.85412811   0.51576789
940.00  -1.87849552   0.51905642
942.00  -1.90291316   0.52235879
944.00  -1.92738104   0.52567503
946.00  -1.95189912   0.52900515
948.00  -1.97646742   0.53234920
950.00  -2.00108591   0.53570719
952.00  -2.02575458   0.53907916
954.00  -2.05047343   0.54246513
956.00  -2.07524245   0.54586514
958.00  -2.10006161   0.54927920
960.00  -2.12493092   0.55270735
962.00  -2.14985037   0.55614961
964.00  -2.17481993   0.55960602
966.00  -2.19983960   0.56307659
968.00  -2.22490937   0.56656137
970.00  -2.25002924   0.57006037
972.00  -2.27519918   0.57357362
974.00  -2.30041919   0.57710115
976.00  -2.32568925   0.58064300
978.00  -2.35100937   0.58419917
980.00  -2.37637951   0.58776972
982.00  -2.40179969   0.59135465
984.00  -2.42726987   0.59495400
986.00  -2.45279006   0.59856780
988.00  -2.47836024   0.60219608
990.00  -2.50398040   0.60583885
992.00  -2.52965054   0.60949616
994.00  -2.55537063   0.61316803
996.00  -2.58114067   0.61685448
998.00  -2.60696064   0.62055554
1000.00  -2.63283055   0.62427124
1002.00  -2.65875036   0.62800161
1004.00  -2.68472009   0.63174667
1006.00  -2.71073970   0.63550646
1008.00  -2.73680920   0.63928100
1010.00  -2.76292857   0.64307032
1012.00  -2.78909779   0.64687444
1014.00  -2.81531687   0.65069340
1016.00  -2.84158578   0.65452721
1018.00  -2.86790452   0.65837592
1020.00  -2.89427308   0.66223953
1022.00  -2.92069144   0.66611810
1024.00  -2.94715959   0.67001163
1026.00  -2.97367752   0.67392016
1028.00  -3.00024522   0.67784371
1030.00  -3.02686268   0.68178232
1032.00  -3.05352989   0.68573601
1034.00  -3.08024683   0.68970481
1036.00  -3.10701350   0.69368874
1038.00  -3.13382988   0.69768783
1040.00  -3.16069597   0.70170211
1042.00  -3.18761174   0.70573161
1044.00  -3.21457719   0.70977636
1046.00  -3.24159231   0.71383637
1048.00  -3.26865709   0.71791169
1050.00  -3.29577151   0.72200233
1052.00  -3.32293556   0.72610832
1054.00  -3.35014923   0.73022970
1056.00  -3.37741252   0.73436648
1058.00  -3.40472540   0.73851870
1060.00  -3.43208787   0.74268638
1062.00  -3.45949991   0.74686955
1064.00  -3.48696152   0.75106824
1066.00  -3.51447267   0.75528247
1068.00  -3.54203337   0.75951228
1070.00  -3.56964360   0.76375768
1072.00  -3.59730334   0.76801871
1074.00  -3.62501259   0.77229540
1076.00  -3.65277133   0.77658776
1078.00  -3.68057955   0.78089583
1080.00  -3.70843724   0.78521964
1082.00  -3.73634438   0.78955920
1084.00  -3.76430098   0.79391456
1086.00  -3.79230700   0.79828573
1088.00  -3.82036245   0.80267275
1090.00  -3.84846731   0.80707564
1092.00  -3.87662157   0.81149442
1094.00  -3.90482521   0.81592913
1096.00  -3.93307823   0.82037979
1098.00  -3.96138061   0.82484643
1100.00  -3.98973234   0.82932907
1102.00  -4.01813340   0.83382775
1104.00  -4.04658380   0.83834248
1106.00  -4.07508351   0.84287331
1108.00  -4.10363252   0.84742024
1110.00  -4.13223081   0.85198332
1112.00  -4.16087839   0.85656257
1114.00  -4.18957523   0.86115801
1116.00  -4.21832133   0.86576967
1118.00  -4.24711667   0.87039758
1120.00  -4.27596123   0.87504176
1122.00  -4.30485502   0.87970225
1124.00  -4.33379800   0.88437907
1126.00  -4.36279018   0.88907224
1128.00  -4.39183154   0.89378179
1130.00  -4.42092207   0.89850776
1132.00  -4.45006175   0.90325016
1134.00  -4.47925058   0.90800903
1136.00  -4.50848854   0.91278438
1138.00  -4.53777561   0.91757626
1140.00  -4.56711180   0.92238468
1142.00  -4.59649707   0.92720966
1144.00  -4.62593143   0.93205125
1146.00  -4.65541485   0.93690946
1148.00  -4.68494733   0.94178432
1150.00  -4.71452886   0.94667586
1152.00  -4.74415941   0.95158411
1154.00  -4.77383899   0.95650908
1156.00  -4.80356757   0.96145082
1158.00  -4.83334514   0.96640934
1160.00  -4.86317170   0.97138467
1162.00  -4.89304722   0.97637684
1164.00  -4.92297170   0.98138587
1166.00  -4.95294513   0.98641179
1168.00  -4.98296748   0.99145464
1170.00  -5.01303875   0.99651443
1172.00  -5.04315893   1.00159119
1174.00  -5.07332800   1.00668494
1176.00  -5.10354594   1.01179573
1178.00  -5.13381276   1.01692356
1180.00  -5.16412843   1.02206847
1182.00  -5.19449294   1.02723049
1184.00  -5.22490628   1.03240963
1186.00  -5.25536843   1.03760594
1188.00  -5.28587939   1.04281943
1190.00  -5.31643914   1.04805013
1192.00  -5.34704767   1.05329806
1194.00  -5.37770495   1.05856326
1196.00  -5.40841100   1.06384575
1198.00  -5.43916577   1.06914556
1200.00  -5.46996928   1.07446271
1202.00  -5.50082150   1.07979723
1204.00  -5.53172241   1.08514914
1206.00  -5.56267201   1.09051848
1208.00  -5.59367029   1.09590526
1210.00  -5.62471723   1.10130952
1212.00  -5.65581281   1.10673129
1214.00  -5.68695703   1.11217058
1216.00  -5.71814986   1.11762742
1218.00  -5.74939131   1.12310185
1220.00  -5.78068135   1.12859388
1222.00  -5.81201997   1.13410354
1224.00  -5.84340716   1.13963087
1226.00  -5.87484291   1.14517588
1228.00  -5.90632720   1.15073860
1230.00  -5.93786002   1.15631906
1232.00  -5.96944135   1.16191728
1234.00  -6.00107118   1.16753330
1236.00  -6.03274950   1.17316713
1238.00  -6.06447630   1.17881881
1240.00  -6.09625156   1.18448836
1242.00  -6.12807527   1.19017580
1244.00  -6.15994742   1.19588116
1246.00  -6.19186798   1.20160447
1248.00  -6.22383696   1.20734576
1250.00  -6.25585433   1.21310505
1252.00  -6.28792008   1.21888236
1254.00  -6.32003420   1.22467773
1256.00  -6.35219668   1.23049117
1258.00  -6.38440750   1.23632272
1260.00  -6.41666664   1.24217240
1262.00  -6.44897410   1.24804024
1264.00  -6.48132986   1.25392626
1266.00  -6.51373391   1.25983049
1268.00  -6.54618623   1.26575296
1270.00  -6.57868681   1.27169369
1272.00  -6.61123564   1.27765270
1274.00  -6.64383270   1.28363003
1276.00  -6.67647797   1.28962569
1278.00  -6.70917146   1.29563973
1280.00  -6.74191313   1.30167215
1282.00  -6.77470299   1.30772299
1284.00  -6.80754100   1.31379227
1286.00  -6.84042717   1.31988003
1288.00  -6.87336147   1.32598627
1290.00  -6.90634390   1.33211104
1292.00  -6.93937444   1.33825436
1294.00  -6.97245307   1.34441625
1296.00  -7.00557978   1.35059673
1298.00  -7.03875456   1.35679584
