wavelength(nm)         real         imag
100.00   3.68184388   0.00208468
102.00   3.67303121   0.00221227
104.00   3.66404410   0.00234496
106.00   3.65488255   0.00248286
108.00   3.64554657   0.00262606
110.00   3.63603616   0.00277466
112.00   3.62635132   0.00292876
114.00   3.61649207   0.00308846
116.00   3.60645839   0.00325387
118.00   3.59625031   0.00342507
120.00   3.58586781   0.00360218
122.00   3.57531092   0.00378529
124.00   3.56457962   0.00397451
126.00   3.55367393   0.00416992
128.00   3.54259385   0.00437164
130.00   3.53133939   0.00457975
132.00   3.51991055   0.00479437
134.00   3.50830733   0.00501559
136.00   3.49652975   0.00524351
138.00   3.48457780   0.00547824
140.00   3.47245149   0.00571986
142.00   3.46015083   0.00596848
144.00   3.44767582   0.00622421
146.00   3.43502647   0.00648714
148.00   3.42220278   0.00675736
150.00   3.40920475   0.00703499
152.00   3.39603241   0.00732012
154.00   3.38268574   0.00761285
156.00   3.36916476   0.00791328
158.00   3.35546947   0.00822150
160.00   3.34159988   0.00853763
162.00   3.32755599   0.00886176
164.00   3.31333782   0.00919399
166.00   3.29894535   0.00953441
168.00   3.28437862   0.00988314
170.00   3.26963761   0.01024026
172.00   3.25472233   0.01060589
174.00   3.23963280   0.01098011
176.00   3.22436902   0.01136303
178.00   3.20893099   0.01175475
180.00   3.19331872   0.01215537
182.00   3.17753222   0.01256498
184.00   3.16157150   0.01298369
186.00   3.14543656   0.01341160
188.00   3.12912741   0.01384881
190.00   3.11264406   0.01429541
192.00   3.09598651   0.01475151
194.00   3.07915477   0.01521721
196.00   3.06214885   0.01569260
198.00   3.04496876   0.01617779
200.00   3.02761450   0.01667287
202.00   3.01008608   0.01717795
204.00   2.99238351   0.01769312
206.00   2.97450680   0.01821849
208.00   2.95645596   0.01875415
210.00   2.93823098   0.01930021
212.00   2.91983189   0.01985676
214.00   2.90125868   0.02042390
216.00   2.88251137   0.02100174
218.00   2.86358997   0.02159037
220.00   2.84449448   0.02218989
222.00   2.82522491   0.02280040
224.00   2.80578127   0.02342201
226.00   2.78616357   0.02405480
228.00   2.76637181   0.02469889
230.00   2.74640602   0.02535437
232.00   2.72626618   0.02602133
234.00   2.70595232   0.02669989
236.00   2.68546444   0.02739013
238.00   2.66480256   0.02809217
240.00   2.64396667   0.02880609
242.00   2.62295679   0.02953200
244.00   2.60177293   0.03027000
246.00   2.58041510   0.03102018
248.00   2.55888331   0.03178266
250.00   2.53717756   0.03255751
252.00   2.51529787   0.03334486
254.00   2.49324424   0.03414478
256.00   2.47101669   0.03495739
258.00   2.44861522   0.03578279
260.00   2.42603985   0.03662107
262.00   2.40329059   0.03747233
264.00   2.38036743   0.03833668
266.00   2.35727041   0.03921420
268.00   2.33399951   0.04010501
270.00   2.31055477   0.04100920
272.00   2.28693617   0.04192687
274.00   2.26314375   0.04285811
276.00   2.23917749   0.04380304
278.00   2.21503743   0.04476174
280.00   2.19072356   0.04573432
282.00   2.16623590   0.04672088
284.00   2.14157446   0.04772152
286.00   2.11673925   0.04873633
288.00   2.09173027   0.04976542
290.00   2.06654755   0.05080888
292.00   2.04119109   0.05186681
294.00   2.01566090   0.05293932
296.00   1.98995700   0.05402649
298.00   1.96407939   0.05512844
300.00   1.93802809   0.05624527
302.00   1.91180311   0.05737706
304.00   1.88540445   0.05852392
306.00   1.85883214   0.05968595
308.00   1.83208618   0.06086324
310.00   1.80516658   0.06205591
312.00   1.77807336   0.06326404
314.00   1.75080653   0.06448773
316.00   1.72336610   0.06572709
318.00   1.69575208   0.06698221
320.00   1.66796449   0.06825320
322.00   1.64000333   0.06954015
324.00   1.61186862   0.07084316
326.00   1.58356037   0.07216233
328.00   1.55507859   0.07349775
330.00   1.52642330   0.07484954
332.00   1.49759450   0.07621779
334.00   1.46859222   0.07760259
336.00   1.43941646   0.07900404
338.00   1.41006724   0.08042226
340.00   1.38054456   0.08185732
342.00   1.35084845   0.08330934
344.00   1.32097891   0.08477841
346.00   1.29093596   0.08626463
348.00   1.26071961   0.08776810
350.00   1.23032987   0.08928892
352.00   1.19976676   0.09082719
354.00   1.16903030   0.09238300
356.00   1.13812048   0.09395646
358.00   1.10703734   0.09554767
360.00   1.07578087   0.09715672
362.00   1.04435110   0.09878371
364.00   1.01274804   0.10042874
366.00   0.98097170   0.10209191
368.00   0.94902210   0.10377332
370.00   0.91689925   0.10547307
372.00   0.88460316   0.10719125
374.00   0.85213385   0.10892797
376.00   0.81949133   0.11068333
378.00   0.78667562   0.11245742
380.00   0.75368673   0.11425034
382.00   0.72052468   0.11606219
384.00   0.68718948   0.11789307
386.00   0.65368114   0.11974308
388.00   0.61999968   0.12161231
390.00   0.58614511   0.12350087
392.00   0.55211745   0.12540886
394.00   0.51791672   0.12733637
396.00   0.48354292   0.12928350
398.00   0.44899608   0.13125035
400.00   0.41427621   0.13323702
402.00   0.37938332   0.13524360
404.00   0.34431743   0.13727020
406.00   0.30907855   0.13931692
408.00   0.27366670   0.14138385
410.00   0.23808190   0.14347110
412.00   0.20232416   0.14557875
414.00   0.16639349   0.14770691
416.00   0.13028992   0.14985568
418.00   0.09401345   0.15202516
420.00   0.05756411   0.15421544
422.00   0.02094191   0.15642662
424.00  -0.01585314   0.15865881
426.00  -0.05282102   0.16091209
428.00  -0.08996171   0.16318658
430.00  -0.12727519   0.16548236
432.00  -0.16476146   0.16779953
434.00  -0.20242049   0.17013820
436.00  -0.24025226   0.17249846
438.00  -0.27825677   0.17488041
440.00  -0.31643399   0.17728415
442.00  -0.35478391   0.17970978
444.00  -0.39330651   0.18215739
446.00  -0.43200178   0.18462709
448.00  -0.47086969   0.18711896
450.00  -0.50991023   0.18963312
452.00  -0.54912338   0.19216966
454.00  -0.58850913   0.19472867
456.00  -0.62806746   0.19731026
458.00  -0.66779836   0.19991452
460.00  -0.70770179   0.20254155
462.00  -0.74777776   0.20519145
464.00  -0.78802623   0.20786432
466.00  -0.82844719   0.21056025
468.00  -0.86904063   0.21327935
470.00  -0.90980653   0.21602171
472.00  -0.95074486   0.21878743
474.00  -0.99185562   0.22157661
476.00  -1.03313878   0.22438934
478.00  -1.07459432   0.22722573
480.00  -1.11622224   0.23008587
482.00  -1.15802250   0.23296985
484.00  -1.19999509   0.23587779
486.00  -1.24213999   0.23880977
488.00  -1.28445719   0.24176590
490.00  -1.32694667   0.24474627
492.00  -1.36960840   0.24775098
494.00  -1.41244237   0.25078012
496.00  -1.45544856   0.25383381
498.00  -1.49862695   0.25691212
500.00  -1.54197753   0.26001517
502.00  -1.58550026   0.26314304
504.00  -1.62919515   0.26629584
506.00  -1.67306215   0.26947367
508.00  -1.71710127   0.27267662
510.00  -1.76131247   0.27590479
512.00  -1.80569574   0.27915827
514.00  -1.85025106   0.28243718
516.00  -1.89497841   0.28574159
518.00  -1.93987777   0.28907162
520.00  -1.98494912   0.29242735
522.00  -2.03019244   0.29580889
524.00  -2.07560771   0.29921634
526.00  -2.12119492   0.30264978
528.00  -2.16695403   0.30610933
530.00  -2.21288504   0.30959507
532.00  -2.25898792   0.31310710
534.00  -2.30526265   0.31664553
536.00  -2.35170921   0.32021044
538.00  -2.39832758   0.32380195
540.00  -2.44511774   0.32742013
542.00  -2.49207968   0.33106510
544.00  -2.53921336   0.33473695
546.00  -2.58651878   0.33843577
548.00  -2.63399590   0.34216166
550.00  -2.68164471   0.34591473
552.00  -2.72946520   0.34969507
554.00  -2.77745732   0.35350277
556.00  -2.82562108   0.35733793
558.00  -2.87395644   0.36120066
560.00  -2.92246338   0.36509104
562.00  -2.97114189   0.36900918
564.00  -3.01999194   0.37295517
566.00  -3.06901351   0.37692910
568.00  -3.11820657   0.38093109
570.00  -3.16757112   0.38496122
572.00  -3.21710713   0.38901958
574.00  -3.26681457   0.39310629
576.00  -3.31669342   0.39722143
578.00  -3.36674366   0.40136511
580.00  -3.41696528   0.40553741
582.00  -3.46735824   0.40973844
584.00  -3.51792253   0.41396829
586.00  -3.56865813   0.41822706
588.00  -3.61956500   0.42251485
590.00  -3.67064314   0.42683175
592.00  -3.72189252   0.43117787
594.00  -3.77331311   0.43555329
596.00  -3.82490490   0.43995812
598.00  -3.87666785   0.44439245
600.00  -3.92860196   0.44885637
602.00  -3.98070719   0.45335000
604.00  -4.03298353   0.45787341
606.00  -4.08543094   0.46242672
608.00  -4.13804942   0.46701001
610.00  -4.19083893   0.47162338
612.00  -4.24379945   0.47626693
614.00  -4.29693096   0.48094076
616.00  -4.35023344   0.48564496
618.00  -4.40370686   0.49037963
620.00  -4.45735121   0.49514486
622.00  -4.51116645   0.49994076
624.00  -4.56515256   0.50476742
626.00  -4.61930952   0.50962493
628.00  -4.67363731   0.51451339
630.00  -4.72813590   0.51943291
632.00  -4.78280528   0.52438357
634.00  -4.83764540   0.52936547
636.00  -4.89265626   0.53437871
638.00  -4.94783783   0.53942338
640.00  -5.00319008   0.54449959
642.00  -5.05871299   0.54960742
644.00  -5.11440654   0.55474697
646.00  -5.17027070   0.55991835
648.00  -5.22630545   0.56512164
650.00  -5.28251076   0.57035695
652.00  -5.33888661   0.57562436
654.00  -5.39543298   0.58092398
656.00  -5.45214984   0.58625590
658.00  -5.50903716   0.59162022
660.00  -5.56609492   0.59701704
662.00  -5.62332310   0.60244644
664.00  -5.68072167   0.60790853
666.00  -5.73829061   0.61340340
668.00  -5.79602988   0.61893115
670.00  -5.85393948   0.62449188
672.00  -5.91201937   0.63008567
674.00  -5.97026952   0.63571263
676.00  -6.02868992   0.64137286
678.00  -6.08728053   0.64706644
680.00  -6.14604133   0.65279348
682.00  -6.20497229   0.65855407
684.00  -6.26407340   0.66434830
686.00  -6.32334462   0.67017628
688.00  -6.38278593   0.67603809
690.00  -6.44239730   0.68193384
692.00  -6.50217871   0.68786362
694.00  -6.56213013   0.69382752
696.00  -6.62225154   0.69982564
698.00  -6.68254290   0.70585809
700.00  -6.74300420   0.71192494
702.00  -6.80363541   0.71802630
704.00  -6.86443649   0.72416227
706.00  -6.92540743   0.73033293
708.00  -6.98654820   0.73653840
710.00  -7.04785877   0.74277875
712.00  -7.10933911   0.74905408
714.00  -7.17098921   0.75536450
716.00  -7.23280902   0.76171010
718.00  -7.29479853   0.76809097
720.00  -7.35695771   0.77450721
722.00  -7.41928653   0.78095891
724.00  -7.48178496   0.78744617
726.00  -7.54445299   0.79396909
728.00  -7.60729057   0.80052775
730.00  -7.67029769   0.80712226
732.00  -7.73347431   0.81375271
734.00  -7.79682041   0.82041920
736.00  -7.86033596   0.82712182
738.00  -7.92402094   0.83386066
740.00  -7.98787531   0.84063583
742.00  -8.05189906   0.84744741
744.00  -8.11609214   0.85429550
746.00  -8.18045454   0.86118020
748.00  -8.24498622   0.86810160
750.00  -8.30968716   0.87505980
752.00  -8.37455733   0.88205489
754.00  -8.43959671   0.88908697
756.00  -8.50480526   0.89615613
758.00  -8.57018295   0.90326247
760.00  -8.63572976   0.91040608
762.00  -8.70144566   0.91758705
764.00  -8.76733062   0.92480549
766.00  -8.83338462   0.93206148
768.00  -8.89960762   0.93935513
770.00  -8.96599959   0.94668652
772.00  -9.03256051   0.95405575
774.00  -9.09929035   0.96146292
776.00  -9.16618908   0.96890812
778.00  -9.23325667   0.97639144
780.00  -9.30049309   0.98391298
782.00  -9.36789831   0.99147284
784.00  -9.43547231   0.99907110
786.00  -9.50321505   1.00670787
788.00  -9.57112651   1.01438324
790.00  -9.63920665   1.02209730
792.00  -9.70745545   1.02985015
794.00  -9.77587288   1.03764188
796.00  -9.84445890   1.04547258
798.00  -9.91321349   1.05334236
800.00  -9.98213663   1.06125130
802.00 -10.05122827   1.06919950
804.00 -10.12048839   1.07718705
806.00 -10.18991696   1.08521405
808.00 -10.25951395   1.09328060
810.00 -10.32927932   1.10138678
812.00 -10.39921306   1.10953269
814.00 -10.46931513   1.11771842
816.00 -10.53958550   1.12594407
818.00 -10.61002413   1.13420974
820.00 -10.68063101   1.14251551
822.00 -10.75140609   1.15086149
824.00 -10.82234935   1.15924776
826.00 -10.89346076   1.16767442
828.00 -10.96474028   1.17614156
830.00 -11.03618789   1.18464928
832.00 -11.10780356   1.19319767
834.00 -11.17958725   1.20178683
836.00 -11.25153893   1.21041684
838.00 -11.32365858   1.21908781
840.00 -11.39594616   1.22779982
842.00 -11.46840163   1.23655298
844.00 -11.54102498   1.24534736
846.00 -11.61381617   1.25418308
848.00 -11.68677516   1.26306022
850.00 -11.75990193   1.27197887
852.00 -11.83319644   1.28093913
854.00 -11.90665867   1.28994110
856.00 -11.98028858   1.29898486
858.00 -12.05408613   1.30807051
860.00 -12.12805131   1.31719814
862.00 -12.20218407   1.32636785
864.00 -12.27648438   1.33557973
866.00 -12.35095222   1.34483387
868.00 -12.42558755   1.35413037
870.00 -12.50039033   1.36346932
872.00 -12.57536054   1.37285082
874.00 -12.65049815   1.38227495
876.00 -12.72580311   1.39174181
878.00 -12.80127541   1.40125149
880.00 -12.87691500   1.41080409
882.00 -12.95272186   1.42039970
884.00 -13.02869595   1.43003841
886.00 -13.10483724   1.43972032
888.00 -13.18114569   1.44944552
890.00 -13.25762128   1.45921410
892.00 -13.33426397   1.46902616
894.00 -13.41107373   1.47888178
896.00 -13.48805053   1.48878107
898.00 -13.56519432   1.49872411
900.00 -13.64250509   1.50871099
902.00 -13.71998279   1.51874182
904.00 -13.79762740   1.52881668
906.00 -13.87543887   1.53893566
908.00 -13.95341718   1.54909886
910.00 -14.03156229   1.55930638
912.00 -14.10987418   1.56955830
914.00 -14.18835280   1.57985471
916.00 -14.26699812   1.59019571
918.00 -14.34581011   1.60058140
920.00 -14.42478873   1.61101186
922.00 -14.50393395   1.62148719
924.00 -14.58324575   1.63200747
926.00 -14.66272407   1.64257281
928.00 -14.74236890   1.65318329
930.00 -14.82218018   1.66383901
932.00 -14.90215790   1.67454006
934.00 -14.98230202   1.68528653
936.00 -15.06261250   1.69607852
938.00 -15.14308931   1.70691611
940.00 -15.22373241   1.71779940
942.00 -15.30454176   1.72872848
944.00 -15.38551735   1.73970344
946.00 -15.46665912   1.75072438
948.00 -15.54796705   1.76179138
950.00 -15.62944109   1.77290455
952.00 -15.71108123   1.78406396
954.00 -15.79288741   1.79526972
956.00 -15.87485961   1.80652192
958.00 -15.95699779   1.81782064
960.00 -16.03930192   1.82916598
962.00 -16.12177195   1.84055804
964.00 -16.20440786   1.85199689
966.00 -16.28720961   1.86348265
968.00 -16.37017716   1.87501539
970.00 -16.45331049   1.88659520
972.00 -16.53660954   1.89822219
974.00 -16.62007430   1.90989644
976.00 -16.70370471   1.92161805
978.00 -16.78750075   1.93338710
980.00 -16.87146239   1.94520368
982.00 -16.95558957   1.95706790
984.00 -17.03988228   1.96897983
986.00 -17.12434047   1.98093958
988.00 -17.20896410   1.99294723
990.00 -17.29375315   2.00500288
992.00 -17.37870757   2.01710661
994.00 -17.46382733   2.02925852
996.00 -17.54911239   2.04145869
998.00 -17.63456271   2.05370723
1000.00 -17.72017827   2.06600422
1002.00 -17.80595902   2.07834975
1004.00 -17.89190492   2.09074392
1006.00 -17.97801594   2.10318681
1008.00 -18.06429205   2.11567851
1010.00 -18.15073320   2.12821913
1012.00 -18.23733936   2.14080874
1014.00 -18.32411049   2.15344744
1016.00 -18.41104656   2.16613532
1018.00 -18.49814752   2.17887247
1020.00 -18.58541335   2.19165899
1022.00 -18.67284400   2.20449496
1024.00 -18.76043943   2.21738047
1026.00 -18.84819962   2.23031562
1028.00 -18.93612451   2.24330049
1030.00 -19.02421409   2.25633518
1032.00 -19.11246829   2.26941977
1034.00 -19.20088710   2.28255437
1036.00 -19.28947047   2.29573905
1038.00 -19.37821836   2.30897391
1040.00 -19.46713074   2.32225904
1042.00 -19.55620757   2.33559453
1044.00 -19.64544881   2.34898047
1046.00 -19.73485442   2.36241695
1048.00 -19.82442436   2.37590406
1050.00 -19.91415860   2.38944190
1052.00 -20.00405710   2.40303055
1054.00 -20.09411982   2.41667009
1056.00 -20.18434672   2.43036064
1058.00 -20.27473776   2.44410226
1060.00 -20.36529291   2.45789506
1062.00 -20.45601213   2.47173913
1064.00 -20.54689537   2.48563454
1066.00 -20.63794260   2.49958140
1068.00 -20.72915378   2.51357980
1070.00 -20.82052887   2.52762981
1072.00 -20.91206784   2.54173155
1074.00 -21.00377064   2.55588508
1076.00 -21.09563724   2.57009051
1078.00 -21.18766759   2.58434792
1080.00 -21.27986166   2.59865741
1082.00 -21.37221940   2.61301906
1084.00 -21.46474079   2.62743297
1086.00 -21.55742577   2.64189921
1088.00 -21.65027432   2.65641789
1090.00 -21.74328638   2.67098909
1092.00 -21.83646193   2.68561290
1094.00 -21.92980091   2.70028942
1096.00 -22.02330330   2.71501872
1098.00 -22.11696906   2.72980091
1100.00 -22.21079813   2.74463607
1102.00 -22.30479049   2.75952428
1104.00 -22.39894609   2.77446565
1106.00 -22.49326489   2.78946025
1108.00 -22.58774686   2.80450818
1110.00 -22.68239194   2.81960953
1112.00 -22.77720012   2.83476438
1114.00 -22.87217133   2.84997283
1116.00 -22.96730555   2.86523497
1118.00 -23.06260273   2.88055088
1120.00 -23.15806283   2.89592065
1122.00 -23.25368581   2.91134437
1124.00 -23.34947163   2.92682213
1126.00 -23.44542026   2.94235403
1128.00 -23.54153164   2.95794014
1130.00 -23.63780574   2.97358056
1132.00 -23.73424252   2.98927538
1134.00 -23.83084194   3.00502468
1136.00 -23.92760396   3.02082856
1138.00 -24.02452853   3.03668710
1140.00 -24.12161561   3.05260040
1142.00 -24.21886517   3.06856853
1144.00 -24.31627716   3.08459160
1146.00 -24.41385154   3.10066968
1148.00 -24.51158827   3.11680286
1150.00 -24.60948731   3.13299125
1152.00 -24.70754862   3.14923491
1154.00 -24.80577215   3.16553395
1156.00 -24.90415787   3.18188845
1158.00 -25.00270573   3.19829850
1160.00 -25.10141569   3.21476419
1162.00 -25.20028771   3.23128560
1164.00 -25.29932175   3.24786282
1166.00 -25.39851776   3.26449595
1168.00 -25.49787571   3.28118506
1170.00 -25.59739555   3.29793026
1172.00 -25.69707724   3.31473162
1174.00 -25.79692074   3.33158924
1176.00 -25.89692600   3.34850320
1178.00 -25.99709298   3.36547359
1180.00 -26.09742165   3.38250049
1182.00 -26.19791196   3.39958401
1184.00 -26.29856386   3.41672422
1186.00 -26.39937731   3.43392121
1188.00 -26.50035228   3.45117507
1190.00 -26.60148872   3.46848589
1192.00 -26.70278658   3.48585375
1194.00 -26.80424583   3.50327875
1196.00 -26.90586641   3.52076097
1198.00 -27.00764830   3.53830050
1200.00 -27.10959144   3.55589742
1202.00 -27.21169579   3.57355183
1204.00 -27.31396131   3.59126380
1206.00 -27.41638795   3.60903344
1208.00 -27.51897568   3.62686082
1210.00 -27.62172445   3.64474604
1212.00 -27.72463421   3.66268917
1214.00 -27.82770493   3.68069032
1216.00 -27.93093656   3.69874955
1218.00 -28.03432905   3.71686697
1220.00 -28.13788237   3.73504266
1222.00 -28.24159646   3.75327671
1224.00 -28.34547129   3.77156920
1226.00 -28.44950681   3.78992022
1228.00 -28.55370298   3.80832986
1230.00 -28.65805976   3.82679820
1232.00 -28.76257709   3.84532534
1234.00 -28.86725494   3.86391135
1236.00 -28.97209326   3.88255633
1238.00 -29.07709201   3.90126036
1240.00 -29.18225114   3.92002352
1242.00 -29.28757062   3.93884592
1244.00 -29.39305038   3.95772762
1246.00 -29.49869040   3.97666873
1248.00 -29.60449063   3.99566932
1250.00 -29.71045102   4.01472948
1252.00 -29.81657153   4.03384930
1254.00 -29.92285211   4.05302887
1256.00 -30.02929272   4.07226826
1258.00 -30.13589331   4.09156758
1260.00 -30.24265384   4.11092690
1262.00 -30.34957427   4.13034630
1264.00 -30.45665454   4.14982589
1266.00 -30.56389462   4.16936574
1268.00 -30.67129446   4.18896593
1270.00 -30.77885402   4.20862657
1272.00 -30.88657324   4.22834772
1274.00 -30.99445209   4.24812948
1276.00 -31.10249051   4.26797193
1278.00 -31.21068847   4.28787517
1280.00 -31.31904592   4.30783926
1282.00 -31.42756282   4.32786431
1284.00 -31.53623910   4.34795040
1286.00 -31.64507475   4.36809761
1288.00 -31.75406969   4.38830602
1290.00 -31.86322390   4.40857573
1292.00 -31.97253732   4.42890682
1294.00 -32.08200992   4.44929938
1296.00 -32.19164163   4.46975349
1298.00 -32.30143243   4.49026923
