wavelength(nm)         real         imag
100.00   3.77035393   0.00123889
102.00   3.76511673   0.00131471
104.00   3.75977586   0.00139357
106.00   3.75433132   0.00147552
108.00   3.74878312   0.00156062
110.00   3.74313127   0.00164893
112.00   3.73737575   0.00174050
114.00   3.73151658   0.00183541
116.00   3.72555376   0.00193371
118.00   3.71948728   0.00203546
120.00   3.71331716   0.00214071
122.00   3.70704340   0.00224953
124.00   3.70066599   0.00236197
126.00   3.69418494   0.00247810
128.00   3.68760026   0.00259798
130.00   3.68091195   0.00272166
132.00   3.67412000   0.00284920
134.00   3.66722443   0.00298067
136.00   3.66022523   0.00311612
138.00   3.65312241   0.00325561
140.00   3.64591598   0.00339920
142.00   3.63860593   0.00354696
144.00   3.63119226   0.00369893
146.00   3.62367499   0.00385518
148.00   3.61605411   0.00401577
150.00   3.60832964   0.00418076
152.00   3.60050156   0.00435021
154.00   3.59256989   0.00452417
156.00   3.58453462   0.00470271
158.00   3.57639577   0.00488588
160.00   3.56815333   0.00507375
162.00   3.55980732   0.00526638
164.00   3.55135772   0.00546381
166.00   3.54280455   0.00566612
168.00   3.53414781   0.00587336
170.00   3.52538751   0.00608560
172.00   3.51652364   0.00630288
174.00   3.50755622   0.00652527
176.00   3.49848524   0.00675283
178.00   3.48931071   0.00698563
180.00   3.48003263   0.00722370
182.00   3.47065102   0.00746713
184.00   3.46116586   0.00771596
186.00   3.45157717   0.00797026
188.00   3.44188495   0.00823009
190.00   3.43208920   0.00849549
192.00   3.42218993   0.00876654
194.00   3.41218715   0.00904330
196.00   3.40208085   0.00932582
198.00   3.39187105   0.00961415
200.00   3.38155774   0.00990837
202.00   3.37114093   0.01020853
204.00   3.36062063   0.01051469
206.00   3.34999684   0.01082691
208.00   3.33926956   0.01114524
210.00   3.32843880   0.01146975
212.00   3.31750456   0.01180050
214.00   3.30646686   0.01213754
216.00   3.29532569   0.01248094
218.00   3.28408105   0.01283075
220.00   3.27273296   0.01318703
222.00   3.26128142   0.01354985
224.00   3.24972643   0.01391926
226.00   3.23806800   0.01429532
228.00   3.22630613   0.01467808
230.00   3.21444084   0.01506762
232.00   3.20247211   0.01546399
234.00   3.19039997   0.01586724
236.00   3.17822441   0.01627744
238.00   3.16594544   0.01669465
240.00   3.15356306   0.01711892
242.00   3.14107729   0.01755031
244.00   3.12848812   0.01798889
246.00   3.11579556   0.01843471
248.00   3.10299962   0.01888783
250.00   3.09010031   0.01934832
252.00   3.07709762   0.01981622
254.00   3.06399156   0.02029160
256.00   3.05078215   0.02077452
258.00   3.03746938   0.02126504
260.00   3.02405326   0.02176321
262.00   3.01053380   0.02226910
264.00   2.99691101   0.02278276
266.00   2.98318488   0.02330426
268.00   2.96935542   0.02383365
270.00   2.95542265   0.02437099
272.00   2.94138657   0.02491635
274.00   2.92724718   0.02546977
276.00   2.91300449   0.02603132
278.00   2.89865850   0.02660106
280.00   2.88420923   0.02717905
282.00   2.86965667   0.02776534
284.00   2.85500084   0.02836000
286.00   2.84024174   0.02896308
288.00   2.82537938   0.02957465
290.00   2.81041376   0.03019476
292.00   2.79534490   0.03082347
294.00   2.78017279   0.03146084
296.00   2.76489744   0.03210693
298.00   2.74951887   0.03276180
300.00   2.73403707   0.03342550
302.00   2.71845206   0.03409810
304.00   2.70276383   0.03477966
306.00   2.68697241   0.03547023
308.00   2.67107779   0.03616988
310.00   2.65507998   0.03687866
312.00   2.63897899   0.03759662
314.00   2.62277483   0.03832384
316.00   2.60646750   0.03906037
318.00   2.59005701   0.03980627
320.00   2.57354336   0.04056159
322.00   2.55692657   0.04132640
324.00   2.54020664   0.04210075
326.00   2.52338358   0.04288471
328.00   2.50645740   0.04367833
330.00   2.48942810   0.04448167
332.00   2.47229569   0.04529479
334.00   2.45506018   0.04611776
336.00   2.43772158   0.04695061
338.00   2.42027989   0.04779343
340.00   2.40273512   0.04864626
342.00   2.38508728   0.04950917
344.00   2.36733637   0.05038221
346.00   2.34948241   0.05126544
348.00   2.33152541   0.05215893
350.00   2.31346536   0.05306272
352.00   2.29530228   0.05397689
354.00   2.27703617   0.05490148
356.00   2.25866706   0.05583656
358.00   2.24019493   0.05678218
360.00   2.22161980   0.05773840
362.00   2.20294168   0.05870529
364.00   2.18416058   0.05968291
366.00   2.16527650   0.06067130
368.00   2.14628945   0.06167053
370.00   2.12719944   0.06268066
372.00   2.10800649   0.06370174
374.00   2.08871059   0.06473384
376.00   2.06931176   0.06577702
378.00   2.04981000   0.06683132
380.00   2.03020532   0.06789682
382.00   2.01049774   0.06897357
384.00   1.99068726   0.07006163
386.00   1.97077388   0.07116105
388.00   1.95075762   0.07227191
390.00   1.93063849   0.07339424
392.00   1.91041650   0.07452812
394.00   1.89009165   0.07567360
396.00   1.86966395   0.07683075
398.00   1.84913341   0.07799961
400.00   1.82850004   0.07918025
402.00   1.80776386   0.08037272
404.00   1.78692486   0.08157710
406.00   1.76598306   0.08279342
408.00   1.74493847   0.08402176
410.00   1.72379109   0.08526217
412.00   1.70254094   0.08651471
414.00   1.68118802   0.08777943
416.00   1.65973235   0.08905641
418.00   1.63817393   0.09034569
420.00   1.61651277   0.09164733
422.00   1.59474888   0.09296139
424.00   1.57288228   0.09428794
426.00   1.55091297   0.09562702
428.00   1.52884096   0.09697871
430.00   1.50666625   0.09834305
432.00   1.48438887   0.09972010
434.00   1.46200882   0.10110993
436.00   1.43952611   0.10251258
438.00   1.41694075   0.10392813
440.00   1.39425274   0.10535663
442.00   1.37146211   0.10679814
444.00   1.34856885   0.10825270
446.00   1.32557299   0.10972040
448.00   1.30247452   0.11120127
450.00   1.27927346   0.11269539
452.00   1.25596982   0.11420281
454.00   1.23256361   0.11572358
456.00   1.20905484   0.11725777
458.00   1.18544352   0.11880543
460.00   1.16172966   0.12036663
462.00   1.13791327   0.12194141
464.00   1.11399437   0.12352985
466.00   1.08997295   0.12513199
468.00   1.06584903   0.12674790
470.00   1.04162263   0.12837763
472.00   1.01729375   0.13002125
474.00   0.99286240   0.13167880
476.00   0.96832860   0.13335036
478.00   0.94369235   0.13503597
480.00   0.91895366   0.13673569
482.00   0.89411256   0.13844959
484.00   0.86916904   0.14017773
486.00   0.84412311   0.14192015
488.00   0.81897480   0.14367692
490.00   0.79372411   0.14544810
492.00   0.76837104   0.14723374
494.00   0.74291562   0.14903390
496.00   0.71735785   0.15084865
498.00   0.69169775   0.15267803
500.00   0.66593532   0.15452211
502.00   0.64007058   0.15638095
504.00   0.61410353   0.15825460
506.00   0.58803420   0.16014312
508.00   0.56186258   0.16204658
510.00   0.53558869   0.16396502
512.00   0.50921255   0.16589850
514.00   0.48273417   0.16784709
516.00   0.45615355   0.16981084
518.00   0.42947070   0.17178981
520.00   0.40268565   0.17378406
522.00   0.37579840   0.17579365
524.00   0.34880896   0.17781863
526.00   0.32171734   0.17985906
528.00   0.29452356   0.18191500
530.00   0.26722763   0.18398651
532.00   0.23982956   0.18607365
534.00   0.21232936   0.18817647
536.00   0.18472704   0.19029503
538.00   0.15702262   0.19242939
540.00   0.12921611   0.19457961
542.00   0.10130752   0.19674575
544.00   0.07329686   0.19892786
546.00   0.04518414   0.20112600
548.00   0.01696938   0.20334023
550.00  -0.01134741   0.20557061
552.00  -0.03976622   0.20781719
554.00  -0.06828704   0.21008003
556.00  -0.09690985   0.21235920
558.00  -0.12563464   0.21465474
560.00  -0.15446141   0.21696672
562.00  -0.18339012   0.21929520
564.00  -0.21242079   0.22164023
566.00  -0.24155338   0.22400186
568.00  -0.27078790   0.22638017
570.00  -0.30012432   0.22877520
572.00  -0.32956263   0.23118701
574.00  -0.35910283   0.23361566
576.00  -0.38874489   0.23606121
578.00  -0.41848881   0.23852372
580.00  -0.44833456   0.24100324
582.00  -0.47828215   0.24349983
584.00  -0.50833156   0.24601355
586.00  -0.53848277   0.24854446
588.00  -0.56873576   0.25109261
590.00  -0.59909054   0.25365807
592.00  -0.62954708   0.25624088
594.00  -0.66010537   0.25884111
596.00  -0.69076539   0.26145882
598.00  -0.72152714   0.26409406
600.00  -0.75239060   0.26674688
602.00  -0.78335576   0.26941736
604.00  -0.81442260   0.27210554
606.00  -0.84559111   0.27481148
608.00  -0.87686128   0.27753524
610.00  -0.90823309   0.28027688
612.00  -0.93970653   0.28303646
614.00  -0.97128159   0.28581403
616.00  -1.00295825   0.28860965
618.00  -1.03473649   0.29142337
620.00  -1.06661631   0.29425526
622.00  -1.09859770   0.29710537
624.00  -1.13068063   0.29997376
626.00  -1.16286509   0.30286049
628.00  -1.19515107   0.30576561
630.00  -1.22753856   0.30868919
632.00  -1.26002753   0.31163127
634.00  -1.29261799   0.31459192
636.00  -1.32530990   0.31757119
638.00  -1.35810327   0.32056915
640.00  -1.39099807   0.32358584
642.00  -1.42399429   0.32662133
644.00  -1.45709192   0.32967567
646.00  -1.49029093   0.33274892
648.00  -1.52359133   0.33584114
650.00  -1.55699309   0.33895238
652.00  -1.59049619   0.34208271
654.00  -1.62410063   0.34523217
656.00  -1.65780639   0.34840083
658.00  -1.69161345   0.35158875
660.00  -1.72552181   0.35479597
662.00  -1.75953143   0.35802256
664.00  -1.79364232   0.36126858
666.00  -1.82785446   0.36453408
668.00  -1.86216782   0.36781912
670.00  -1.89658240   0.37112375
672.00  -1.93109819   0.37444804
674.00  -1.96571515   0.37779204
676.00  -2.00043329   0.38115580
678.00  -2.03525259   0.38453939
680.00  -2.07017303   0.38794286
682.00  -2.10519459   0.39136627
684.00  -2.14031726   0.39480967
686.00  -2.17554103   0.39827313
688.00  -2.21086588   0.40175670
690.00  -2.24629180   0.40526043
692.00  -2.28181876   0.40878438
694.00  -2.31744676   0.41232862
696.00  -2.35317578   0.41589319
698.00  -2.38900580   0.41947816
700.00  -2.42493681   0.42308357
702.00  -2.46096879   0.42670950
704.00  -2.49710173   0.43035599
706.00  -2.53333561   0.43402310
708.00  -2.56967042   0.43771089
710.00  -2.60610613   0.44141941
712.00  -2.64264275   0.44514873
714.00  -2.67928023   0.44889889
716.00  -2.71601858   0.45266996
718.00  -2.75285778   0.45646199
720.00  -2.78979781   0.46027504
722.00  -2.82683865   0.46410916
724.00  -2.86398030   0.46796442
726.00  -2.90122272   0.47184087
728.00  -2.93856591   0.47573856
730.00  -2.97600985   0.47965755
732.00  -3.01355453   0.48359790
734.00  -3.05119992   0.48755967
736.00  -3.08894602   0.49154291
738.00  -3.12679280   0.49554768
740.00  -3.16474025   0.49957403
742.00  -3.20278836   0.50362202
744.00  -3.24093710   0.50769172
746.00  -3.27918646   0.51178316
748.00  -3.31753642   0.51589642
750.00  -3.35598697   0.52003155
752.00  -3.39453809   0.52418860
754.00  -3.43318976   0.52836763
756.00  -3.47194197   0.53256870
758.00  -3.51079471   0.53679186
760.00  -3.54974794   0.54103717
762.00  -3.58880166   0.54530469
764.00  -3.62795585   0.54959447
766.00  -3.66721050   0.55390657
768.00  -3.70656558   0.55824105
770.00  -3.74602107   0.56259796
772.00  -3.78557698   0.56697735
774.00  -3.82523326   0.57137929
776.00  -3.86498991   0.57580383
778.00  -3.90484692   0.58025103
780.00  -3.94480426   0.58472094
782.00  -3.98486191   0.58921362
784.00  -4.02501986   0.59372913
786.00  -4.06527810   0.59826752
788.00  -4.10563660   0.60282884
790.00  -4.14609534   0.60741316
792.00  -4.18665432   0.61202053
794.00  -4.22731351   0.61665101
796.00  -4.26807289   0.62130465
798.00  -4.30893245   0.62598151
800.00  -4.34989217   0.63068165
802.00  -4.39095203   0.63540511
804.00  -4.43211201   0.64015196
806.00  -4.47337210   0.64492226
808.00  -4.51473228   0.64971605
810.00  -4.55619253   0.65453340
812.00  -4.59775283   0.65937436
814.00  -4.63941317   0.66423899
816.00  -4.68117352   0.66912734
818.00  -4.72303388   0.67403947
820.00  -4.76499421   0.67897544
822.00  -4.80705451   0.68393529
824.00  -4.84921475   0.68891909
826.00  -4.89147492   0.69392690
828.00  -4.93383500   0.69895876
830.00  -4.97629497   0.70401474
832.00  -5.01885481   0.70909489
834.00  -5.06151450   0.71419926
836.00  -5.10427403   0.71932792
838.00  -5.14713338   0.72448091
840.00  -5.19009252   0.72965829
842.00  -5.23315145   0.73486013
844.00  -5.27631014   0.74008647
846.00  -5.31956857   0.74533737
848.00  -5.36292672   0.75061288
850.00  -5.40638458   0.75591307
852.00  -5.44994213   0.76123799
854.00  -5.49359935   0.76658768
856.00  -5.53735621   0.77196222
858.00  -5.58121271   0.77736165
860.00  -5.62516882   0.78278603
862.00  -5.66922452   0.78823542
864.00  -5.71337980   0.79370986
866.00  -5.75763463   0.79920942
868.00  -5.80198900   0.80473416
870.00  -5.84644288   0.81028412
872.00  -5.89099626   0.81585937
874.00  -5.93564913   0.82145995
876.00  -5.98040145   0.82708593
878.00  -6.02525321   0.83273735
880.00  -6.07020440   0.83841428
882.00  -6.11525498   0.84411677
884.00  -6.16040495   0.84984488
886.00  -6.20565429   0.85559865
888.00  -6.25100296   0.86137816
890.00  -6.29645096   0.86718344
892.00  -6.34199827   0.87301456
894.00  -6.38764486   0.87887157
896.00  -6.43339072   0.88475453
898.00  -6.47923583   0.89066349
900.00  -6.52518016   0.89659851
902.00  -6.57122369   0.90255964
904.00  -6.61736642   0.90854694
906.00  -6.66360831   0.91456046
908.00  -6.70994935   0.92060026
910.00  -6.75638952   0.92666639
912.00  -6.80292880   0.93275891
914.00  -6.84956716   0.93887788
916.00  -6.89630459   0.94502334
918.00  -6.94314107   0.95119536
920.00  -6.99007658   0.95739399
922.00  -7.03711110   0.96361927
924.00  -7.08424460   0.96987128
926.00  -7.13147707   0.97615006
928.00  -7.17880849   0.98245567
930.00  -7.22623883   0.98878817
932.00  -7.27376808   0.99514760
934.00  -7.32139622   1.00153402
936.00  -7.36912323   1.00794750
938.00  -7.41694908   1.01438807
940.00  -7.46487375   1.02085581
942.00  -7.51289723   1.02735075
944.00  -7.56101949   1.03387297
946.00  -7.60924052   1.04042250
948.00  -7.65756029   1.04699941
950.00  -7.70597878   1.05360376
952.00  -7.75449597   1.06023559
954.00  -7.80311184   1.06689496
956.00  -7.85182638   1.07358193
958.00  -7.90063955   1.08029655
960.00  -7.94955134   1.08703887
962.00  -7.99856173   1.09380895
964.00  -8.04767069   1.10060685
966.00  -8.09687821   1.10743262
968.00  -8.14618426   1.11428631
970.00  -8.19558883   1.12116797
972.00  -8.24509189   1.12807767
974.00  -8.29469342   1.13501546
976.00  -8.34439340   1.14198139
978.00  -8.39419181   1.14897551
980.00  -8.44408862   1.15599789
982.00  -8.49408382   1.16304857
984.00  -8.54417739   1.17012761
986.00  -8.59436930   1.17723506
988.00  -8.64465953   1.18437098
990.00  -8.69504806   1.19153542
992.00  -8.74553488   1.19872844
994.00  -8.79611994   1.20595009
996.00  -8.84680325   1.21320043
998.00  -8.89758477   1.22047950
1000.00  -8.94846448   1.22778737
1002.00  -8.99944236   1.23512409
1004.00  -9.05051839   1.24248971
1006.00  -9.10169255   1.24988428
1008.00  -9.15296481   1.25730787
1010.00  -9.20433516   1.26476052
1012.00  -9.25580356   1.27224229
1014.00  -9.30737001   1.27975323
1016.00  -9.35903448   1.28729340
1018.00  -9.41079694   1.29486285
1020.00  -9.46265738   1.30246163
1022.00  -9.51461576   1.31008981
1024.00  -9.56667208   1.31774742
1026.00  -9.61882630   1.32543454
1028.00  -9.67107841   1.33315120
1030.00  -9.72342839   1.34089747
1032.00  -9.77587620   1.34867340
1034.00  -9.82842183   1.35647904
1036.00  -9.88106526   1.36431445
1038.00  -9.93380646   1.37217968
1040.00  -9.98664541   1.38007478
1042.00 -10.03958209   1.38799981
1044.00 -10.09261647   1.39595482
1046.00 -10.14574854   1.40393987
1048.00 -10.19897827   1.41195501
1050.00 -10.25230564   1.42000029
1052.00 -10.30573062   1.42807576
1054.00 -10.35925320   1.43618149
1056.00 -10.41287335   1.44431752
1058.00 -10.46659104   1.45248391
1060.00 -10.52040626   1.46068071
1062.00 -10.57431898   1.46890798
1064.00 -10.62832917   1.47716576
1066.00 -10.68243683   1.48545412
1068.00 -10.73664191   1.49377310
1070.00 -10.79094441   1.50212276
1072.00 -10.84534429   1.51050315
1074.00 -10.89984154   1.51891433
1076.00 -10.95443613   1.52735635
1078.00 -11.00912803   1.53582927
1080.00 -11.06391723   1.54433312
1082.00 -11.11880369   1.55286798
1084.00 -11.17378741   1.56143389
1086.00 -11.22886835   1.57003091
1088.00 -11.28404649   1.57865909
1090.00 -11.33932181   1.58731848
1092.00 -11.39469428   1.59600913
1094.00 -11.45016388   1.60473111
1096.00 -11.50573059   1.61348446
1098.00 -11.56139438   1.62226923
1100.00 -11.61715523   1.63108549
1102.00 -11.67301311   1.63993327
1104.00 -11.72896801   1.64881265
1106.00 -11.78501990   1.65772366
1108.00 -11.84116875   1.66666636
1110.00 -11.89741454   1.67564080
1112.00 -11.95375725   1.68464705
1114.00 -12.01019686   1.69368514
1116.00 -12.06673333   1.70275514
1118.00 -12.12336665   1.71185710
1120.00 -12.18009679   1.72099106
1122.00 -12.23692372   1.73015709
1124.00 -12.29384743   1.73935523
1126.00 -12.35086789   1.74858555
1128.00 -12.40798507   1.75784808
1130.00 -12.46519896   1.76714289
1132.00 -12.52250952   1.77647002
1134.00 -12.57991673   1.78582954
1136.00 -12.63742057   1.79522148
1138.00 -12.69502102   1.80464591
1140.00 -12.75271804   1.81410288
1142.00 -12.81051162   1.82359245
1144.00 -12.86840173   1.83311465
1146.00 -12.92638835   1.84266955
1148.00 -12.98447145   1.85225720
1150.00 -13.04265100   1.86187765
1152.00 -13.10092699   1.87153096
1154.00 -13.15929938   1.88121717
1156.00 -13.21776816   1.89093634
1158.00 -13.27633330   1.90068852
1160.00 -13.33499477   1.91047377
1162.00 -13.39375254   1.92029213
1164.00 -13.45260661   1.93014366
1166.00 -13.51155693   1.94002842
1168.00 -13.57060348   1.94994644
1170.00 -13.62974625   1.95989780
1172.00 -13.68898520   1.96988253
1174.00 -13.74832031   1.97990069
1176.00 -13.80775155   1.98995234
1178.00 -13.86727890   2.00003752
1180.00 -13.92690234   2.01015630
1182.00 -13.98662183   2.02030871
1184.00 -14.04643736   2.03049481
1186.00 -14.10634890   2.04071466
1188.00 -14.16635642   2.05096830
1190.00 -14.22645989   2.06125580
1192.00 -14.28665930   2.07157719
1194.00 -14.34695462   2.08193254
1196.00 -14.40734582   2.09232189
1198.00 -14.46783288   2.10274530
1200.00 -14.52841576   2.11320282
1202.00 -14.58909445   2.12369450
1204.00 -14.64986893   2.13422040
1206.00 -14.71073915   2.14478056
1208.00 -14.77170510   2.15537503
1210.00 -14.83276676   2.16600388
1212.00 -14.89392409   2.17666715
1214.00 -14.95517708   2.18736489
1216.00 -15.01652569   2.19809715
1218.00 -15.07796990   2.20886399
1220.00 -15.13950968   2.21966546
1222.00 -15.20114502   2.23050161
1224.00 -15.26287587   2.24137249
1226.00 -15.32470222   2.25227816
1228.00 -15.38662404   2.26321866
1230.00 -15.44864130   2.27419405
1232.00 -15.51075398   2.28520438
1234.00 -15.57296206   2.29624969
1236.00 -15.63526549   2.30733005
1238.00 -15.69766427   2.31844550
1240.00 -15.76015836   2.32959610
1242.00 -15.82274774   2.34078189
1244.00 -15.88543238   2.35200294
1246.00 -15.94821225   2.36325928
1248.00 -16.01108733   2.37455097
1250.00 -16.07405760   2.38587807
1252.00 -16.13712301   2.39724062
1254.00 -16.20028356   2.40863867
1256.00 -16.26353921   2.42007228
1258.00 -16.32688993   2.43154150
1260.00 -16.39033570   2.44304638
1262.00 -16.45387650   2.45458697
1264.00 -16.51751229   2.46616332
1266.00 -16.58124304   2.47777548
1268.00 -16.64506874   2.48942351
1270.00 -16.70898936   2.50110745
1272.00 -16.77300487   2.51282736
1274.00 -16.83711523   2.52458329
1276.00 -16.90132043   2.53637528
1278.00 -16.96562044   2.54820340
1280.00 -17.03001523   2.56006769
1282.00 -17.09450477   2.57196820
1284.00 -17.15908905   2.58390498
1286.00 -17.22376802   2.59587808
1288.00 -17.28854166   2.60788756
1290.00 -17.35340995   2.61993347
1292.00 -17.41837285   2.63201586
1294.00 -17.48343035   2.64413477
1296.00 -17.54858242   2.65629026
1298.00 -17.61382901   2.66848238
