wavelength(nm)         real         imag
100.00   3.69246509   0.00198318
102.00   3.68408148   0.00210456
104.00   3.67553191   0.00223080
106.00   3.66681641   0.00236198
108.00   3.65793496   0.00249820
110.00   3.64888757   0.00263957
112.00   3.63967426   0.00278617
114.00   3.63029501   0.00293809
116.00   3.62074984   0.00309545
118.00   3.61103874   0.00325832
120.00   3.60116173   0.00342680
122.00   3.59111881   0.00360100
124.00   3.58090998   0.00378100
126.00   3.57053525   0.00396690
128.00   3.55999462   0.00415880
130.00   3.54928810   0.00435678
132.00   3.53841568   0.00456095
134.00   3.52737738   0.00477140
136.00   3.51617320   0.00498823
138.00   3.50480315   0.00521152
140.00   3.49326723   0.00544138
142.00   3.48156544   0.00567790
144.00   3.46969779   0.00592118
146.00   3.45766429   0.00617130
148.00   3.44546494   0.00642837
150.00   3.43309974   0.00669248
152.00   3.42056871   0.00696373
154.00   3.40787184   0.00724221
156.00   3.39500914   0.00752801
158.00   3.38198063   0.00782123
160.00   3.36878629   0.00812197
162.00   3.35542615   0.00843031
164.00   3.34190020   0.00874637
166.00   3.32820846   0.00907022
168.00   3.31435092   0.00940197
170.00   3.30032759   0.00974170
172.00   3.28613849   0.01008953
174.00   3.27178361   0.01044553
176.00   3.25726296   0.01080981
178.00   3.24257655   0.01118245
180.00   3.22772439   0.01156357
182.00   3.21270648   0.01195324
184.00   3.19752282   0.01235156
186.00   3.18217343   0.01275864
188.00   3.16665831   0.01317456
190.00   3.15097747   0.01359942
192.00   3.13513092   0.01403331
194.00   3.11911866   0.01447634
196.00   3.10294069   0.01492858
198.00   3.08659703   0.01539015
200.00   3.07008769   0.01586113
202.00   3.05341266   0.01634162
204.00   3.03657197   0.01683171
206.00   3.01956561   0.01733150
208.00   3.00239359   0.01784108
210.00   2.98505592   0.01836055
212.00   2.96755261   0.01889001
214.00   2.94988366   0.01942954
216.00   2.93204909   0.01997924
218.00   2.91404890   0.02053921
220.00   2.89588310   0.02110955
222.00   2.87755169   0.02169034
224.00   2.85905469   0.02228168
226.00   2.84039210   0.02288366
228.00   2.82156393   0.02349639
230.00   2.80257019   0.02411996
232.00   2.78341089   0.02475445
234.00   2.76408604   0.02539997
236.00   2.74459564   0.02605661
238.00   2.72493970   0.02672447
240.00   2.70511824   0.02740363
242.00   2.68513125   0.02809420
244.00   2.66497876   0.02879627
246.00   2.64466076   0.02950993
248.00   2.62417727   0.03023528
250.00   2.60352829   0.03097241
252.00   2.58271384   0.03172142
254.00   2.56173392   0.03248240
256.00   2.54058854   0.03325545
258.00   2.51927772   0.03404066
260.00   2.49780146   0.03483813
262.00   2.47615977   0.03564794
264.00   2.45435266   0.03647021
266.00   2.43238014   0.03730501
268.00   2.41024222   0.03815245
270.00   2.38793891   0.03901261
272.00   2.36547022   0.03988560
274.00   2.34283616   0.04077151
276.00   2.32003673   0.04167043
278.00   2.29707196   0.04258246
280.00   2.27394184   0.04350769
282.00   2.25064639   0.04444622
284.00   2.22718562   0.04539814
286.00   2.20355954   0.04636354
288.00   2.17976816   0.04734252
290.00   2.15581150   0.04833518
292.00   2.13168955   0.04934161
294.00   2.10740233   0.05036190
296.00   2.08294985   0.05139615
298.00   2.05833213   0.05244445
300.00   2.03354917   0.05350689
302.00   2.00860098   0.05458358
304.00   1.98348758   0.05567461
306.00   1.95820897   0.05678006
308.00   1.93276517   0.05790004
310.00   1.90715619   0.05903464
312.00   1.88138204   0.06018395
314.00   1.85544273   0.06134806
316.00   1.82933827   0.06252708
318.00   1.80306867   0.06372110
320.00   1.77663395   0.06493021
322.00   1.75003412   0.06615450
324.00   1.72326918   0.06739407
326.00   1.69633915   0.06864901
328.00   1.66924405   0.06991942
330.00   1.64198387   0.07120540
332.00   1.61455865   0.07250703
334.00   1.58696838   0.07382441
336.00   1.55921307   0.07515763
338.00   1.53129275   0.07650680
340.00   1.50320743   0.07787199
342.00   1.47495711   0.07925332
344.00   1.44654180   0.08065087
346.00   1.41796153   0.08206473
348.00   1.38921630   0.08349500
350.00   1.36030613   0.08494178
352.00   1.33123103   0.08640515
354.00   1.30199100   0.08788522
356.00   1.27258607   0.08938207
358.00   1.24301625   0.09089581
360.00   1.21328154   0.09242652
362.00   1.18338197   0.09397430
364.00   1.15331755   0.09553924
366.00   1.12308828   0.09712144
368.00   1.09269418   0.09872098
370.00   1.06213527   0.10033798
372.00   1.03141156   0.10197251
374.00   1.00052306   0.10362468
376.00   0.96946978   0.10529457
378.00   0.93825175   0.10698229
380.00   0.90686896   0.10868792
382.00   0.87532145   0.11041155
384.00   0.84360921   0.11215330
386.00   0.81173227   0.11391323
388.00   0.77969063   0.11569146
390.00   0.74748432   0.11748808
392.00   0.71511334   0.11930317
394.00   0.68257771   0.12113683
396.00   0.64987745   0.12298917
398.00   0.61701256   0.12486026
400.00   0.58398307   0.12675020
402.00   0.55078898   0.12865910
404.00   0.51743032   0.13058703
406.00   0.48390709   0.13253410
408.00   0.45021931   0.13450040
410.00   0.41636700   0.13648603
412.00   0.38235017   0.13849106
414.00   0.34816884   0.14051561
416.00   0.31382301   0.14255977
418.00   0.27931271   0.14462362
420.00   0.24463795   0.14670727
422.00   0.20979875   0.14881080
424.00   0.17479511   0.15093430
426.00   0.13962706   0.15307788
428.00   0.10429461   0.15524163
430.00   0.06879778   0.15742564
432.00   0.03313658   0.15963000
434.00  -0.00268897   0.16185481
436.00  -0.03867886   0.16410016
438.00  -0.07483307   0.16636614
440.00  -0.11115158   0.16865285
442.00  -0.14763439   0.17096038
444.00  -0.18428147   0.17328883
446.00  -0.22109280   0.17563828
448.00  -0.25806838   0.17800884
450.00  -0.29520819   0.18040059
452.00  -0.33251220   0.18281364
454.00  -0.36998040   0.18524806
456.00  -0.40761279   0.18770396
458.00  -0.44540933   0.19018143
460.00  -0.48337002   0.19268056
462.00  -0.52149483   0.19520145
464.00  -0.55978376   0.19774418
466.00  -0.59823678   0.20030886
468.00  -0.63685387   0.20289558
470.00  -0.67563503   0.20550442
472.00  -0.71458023   0.20813549
474.00  -0.75368946   0.21078887
476.00  -0.79296269   0.21346466
478.00  -0.83239992   0.21616296
480.00  -0.87200113   0.21888384
482.00  -0.91176629   0.22162742
484.00  -0.95169539   0.22439378
486.00  -0.99178842   0.22718302
488.00  -1.03204535   0.22999522
490.00  -1.07246617   0.23283049
492.00  -1.11305087   0.23568891
494.00  -1.15379941   0.23857058
496.00  -1.19471179   0.24147559
498.00  -1.23578799   0.24440403
500.00  -1.27702798   0.24735600
502.00  -1.31843176   0.25033159
504.00  -1.35999930   0.25333089
506.00  -1.40173059   0.25635400
508.00  -1.44362561   0.25940101
510.00  -1.48568433   0.26247201
512.00  -1.52790675   0.26556710
514.00  -1.57029283   0.26868637
516.00  -1.61284258   0.27182990
518.00  -1.65555595   0.27499780
520.00  -1.69843295   0.27819016
522.00  -1.74147354   0.28140706
524.00  -1.78467771   0.28464861
526.00  -1.82804544   0.28791489
528.00  -1.87157672   0.29120601
530.00  -1.91527152   0.29452204
532.00  -1.95912982   0.29786309
534.00  -2.00315160   0.30122924
536.00  -2.04733686   0.30462059
538.00  -2.09168556   0.30803724
540.00  -2.13619768   0.31147927
542.00  -2.18087321   0.31494678
544.00  -2.22571214   0.31843986
546.00  -2.27071443   0.32195860
548.00  -2.31588007   0.32550309
550.00  -2.36120904   0.32907344
552.00  -2.40670132   0.33266972
554.00  -2.45235689   0.33629204
556.00  -2.49817573   0.33994048
558.00  -2.54415782   0.34361515
560.00  -2.59030314   0.34731612
562.00  -2.63661168   0.35104350
564.00  -2.68308340   0.35479737
566.00  -2.72971829   0.35857783
568.00  -2.77651633   0.36238498
570.00  -2.82347751   0.36621889
572.00  -2.87060179   0.37007968
574.00  -2.91788916   0.37396742
576.00  -2.96533959   0.37788221
578.00  -3.01295308   0.38182414
580.00  -3.06072959   0.38579331
582.00  -3.10866911   0.38978980
584.00  -3.15677162   0.39381372
586.00  -3.20503708   0.39786515
588.00  -3.25346550   0.40194418
590.00  -3.30205683   0.40605091
592.00  -3.35081107   0.41018543
594.00  -3.39972818   0.41434783
596.00  -3.44880816   0.41853820
598.00  -3.49805097   0.42275664
600.00  -3.54745660   0.42700323
602.00  -3.59702502   0.43127808
604.00  -3.64675622   0.43558127
606.00  -3.69665016   0.43991289
608.00  -3.74670684   0.44427303
610.00  -3.79692623   0.44866180
612.00  -3.84730830   0.45307927
614.00  -3.89785304   0.45752555
616.00  -3.94856042   0.46200072
618.00  -3.99943042   0.46650488
620.00  -4.05046302   0.47103811
622.00  -4.10165820   0.47560051
624.00  -4.15301593   0.48019218
626.00  -4.20453619   0.48481320
628.00  -4.25621896   0.48946366
630.00  -4.30806422   0.49414366
632.00  -4.36007195   0.49885329
634.00  -4.41224211   0.50359264
636.00  -4.46457470   0.50836181
638.00  -4.51706968   0.51316087
640.00  -4.56972704   0.51798994
642.00  -4.62254675   0.52284909
644.00  -4.67552879   0.52773842
646.00  -4.72867313   0.53265802
648.00  -4.78197976   0.53760798
650.00  -4.83544864   0.54258840
652.00  -4.88907976   0.54759936
654.00  -4.94287310   0.55264097
656.00  -4.99682862   0.55771330
658.00  -5.05094631   0.56281645
660.00  -5.10522615   0.56795051
662.00  -5.15966810   0.57311557
664.00  -5.21427215   0.57831174
666.00  -5.26903827   0.58353908
668.00  -5.32396644   0.58879771
670.00  -5.37905663   0.59408770
672.00  -5.43430882   0.59940916
674.00  -5.48972300   0.60476216
676.00  -5.54529912   0.61014681
678.00  -5.60103717   0.61556319
680.00  -5.65693713   0.62101140
682.00  -5.71299897   0.62649153
684.00  -5.76922267   0.63200367
686.00  -5.82560819   0.63754790
688.00  -5.88215553   0.64312432
690.00  -5.93886464   0.64873303
692.00  -5.99573552   0.65437411
694.00  -6.05276813   0.66004765
696.00  -6.10996245   0.66575375
698.00  -6.16731845   0.67149249
700.00  -6.22483611   0.67726398
702.00  -6.28251541   0.68306829
704.00  -6.34035632   0.68890551
706.00  -6.39835881   0.69477575
708.00  -6.45652286   0.70067909
710.00  -6.51484845   0.70661563
712.00  -6.57333555   0.71258544
714.00  -6.63198413   0.71858863
716.00  -6.69079417   0.72462528
718.00  -6.74976564   0.73069549
720.00  -6.80889852   0.73679935
722.00  -6.86819278   0.74293694
724.00  -6.92764840   0.74910836
726.00  -6.98726536   0.75531370
728.00  -7.04704361   0.76155305
730.00  -7.10698315   0.76782650
732.00  -7.16708394   0.77413414
734.00  -7.22734595   0.78047606
736.00  -7.28776917   0.78685235
738.00  -7.34835356   0.79326310
740.00  -7.40909911   0.79970841
742.00  -7.47000577   0.80618836
744.00  -7.53107354   0.81270305
746.00  -7.59230237   0.81925256
748.00  -7.65369225   0.82583698
750.00  -7.71524314   0.83245641
752.00  -7.77695503   0.83911094
754.00  -7.83882788   0.84580065
756.00  -7.90086166   0.85252564
758.00  -7.96305636   0.85928599
760.00  -8.02541194   0.86608181
762.00  -8.08792838   0.87291317
764.00  -8.15060565   0.87978017
766.00  -8.21344372   0.88668289
768.00  -8.27644257   0.89362144
770.00  -8.33960217   0.90059589
772.00  -8.40292249   0.90760634
774.00  -8.46640350   0.91465288
776.00  -8.53004518   0.92173560
778.00  -8.59384750   0.92885459
780.00  -8.65781043   0.93600994
782.00  -8.72193394   0.94320173
784.00  -8.78621802   0.95043007
786.00  -8.85066262   0.95769503
788.00  -8.91526772   0.96499671
790.00  -8.98003329   0.97233521
792.00  -9.04495931   0.97971060
794.00  -9.11004575   0.98712297
796.00  -9.17529258   0.99457243
798.00  -9.24069977   1.00205906
800.00  -9.30626729   1.00958294
802.00  -9.37199512   1.01714417
804.00  -9.43788322   1.02474284
806.00  -9.50393157   1.03237904
808.00  -9.57014015   1.04005285
810.00  -9.63650891   1.04776437
812.00  -9.70303783   1.05551369
814.00  -9.76972689   1.06330089
816.00  -9.83657606   1.07112607
818.00  -9.90358530   1.07898931
820.00  -9.97075459   1.08689070
822.00 -10.03808390   1.09483034
824.00 -10.10557320   1.10280832
826.00 -10.17322246   1.11082471
828.00 -10.24103165   1.11887962
830.00 -10.30900074   1.12697313
832.00 -10.37712971   1.13510534
834.00 -10.44541852   1.14327632
836.00 -10.51386714   1.15148617
838.00 -10.58247555   1.15973498
840.00 -10.65124372   1.16802284
842.00 -10.72017161   1.17634983
844.00 -10.78925920   1.18471606
846.00 -10.85850646   1.19312160
848.00 -10.92791335   1.20156654
850.00 -10.99747985   1.21005098
852.00 -11.06720593   1.21857500
854.00 -11.13709155   1.22713869
856.00 -11.20713669   1.23574214
858.00 -11.27734132   1.24438545
860.00 -11.34770541   1.25306869
862.00 -11.41822892   1.26179196
864.00 -11.48891183   1.27055535
866.00 -11.55975411   1.27935894
868.00 -11.63075572   1.28820283
870.00 -11.70191664   1.29708710
872.00 -11.77323683   1.30601184
874.00 -11.84471626   1.31497715
876.00 -11.91635491   1.32398310
878.00 -11.98815275   1.33302979
880.00 -12.06010973   1.34211731
882.00 -12.13222584   1.35124575
884.00 -12.20450103   1.36041519
886.00 -12.27693528   1.36962572
888.00 -12.34952857   1.37887744
890.00 -12.42228085   1.38817042
892.00 -12.49519209   1.39750477
894.00 -12.56826227   1.40688056
896.00 -12.64149135   1.41629788
898.00 -12.71487930   1.42575683
900.00 -12.78842610   1.43525749
902.00 -12.86213170   1.44479996
904.00 -12.93599608   1.45438431
906.00 -13.01001920   1.46401064
908.00 -13.08420104   1.47367903
910.00 -13.15854156   1.48338958
912.00 -13.23304073   1.49314237
914.00 -13.30769852   1.50293749
916.00 -13.38251489   1.51277503
918.00 -13.45748982   1.52265507
920.00 -13.53262327   1.53257771
922.00 -13.60791521   1.54254304
924.00 -13.68336561   1.55255113
926.00 -13.75897443   1.56260208
928.00 -13.83474165   1.57269598
930.00 -13.91066722   1.58283291
932.00 -13.98675113   1.59301297
934.00 -14.06299332   1.60323623
936.00 -14.13939379   1.61350279
938.00 -14.21595248   1.62381274
940.00 -14.29266937   1.63416616
942.00 -14.36954442   1.64456315
944.00 -14.44657760   1.65500378
946.00 -14.52376889   1.66548815
948.00 -14.60111824   1.67601635
950.00 -14.67862562   1.68658845
952.00 -14.75629100   1.69720456
954.00 -14.83411434   1.70786475
956.00 -14.91209562   1.71856912
958.00 -14.99023480   1.72931775
960.00 -15.06853185   1.74011073
962.00 -15.14698672   1.75094815
964.00 -15.22559940   1.76183009
966.00 -15.30436984   1.77275664
968.00 -15.38329802   1.78372790
970.00 -15.46238389   1.79474394
972.00 -15.54162742   1.80580485
974.00 -15.62102859   1.81691072
976.00 -15.70058735   1.82806165
978.00 -15.78030368   1.83925771
980.00 -15.86017753   1.85049899
982.00 -15.94020888   1.86178558
984.00 -16.02039769   1.87311757
986.00 -16.10074393   1.88449504
988.00 -16.18124755   1.89591808
990.00 -16.26190854   1.90738678
992.00 -16.34272685   1.91890123
994.00 -16.42370244   1.93046151
996.00 -16.50483529   1.94206770
998.00 -16.58612536   1.95371990
1000.00 -16.66757261   1.96541820
1002.00 -16.74917702   1.97716267
1004.00 -16.83093854   1.98895341
1006.00 -16.91285713   2.00079050
1008.00 -16.99493278   2.01267404
1010.00 -17.07716543   2.02460409
1012.00 -17.15955506   2.03658077
1014.00 -17.24210163   2.04860414
1016.00 -17.32480511   2.06067429
1018.00 -17.40766545   2.07279132
1020.00 -17.49068263   2.08495531
1022.00 -17.57385661   2.09716634
1024.00 -17.65718735   2.10942450
1026.00 -17.74067482   2.12172989
1028.00 -17.82431898   2.13408257
1030.00 -17.90811980   2.14648265
1032.00 -17.99207724   2.15893021
1034.00 -18.07619127   2.17142533
1036.00 -18.16046184   2.18396809
1038.00 -18.24488893   2.19655860
1040.00 -18.32947250   2.20919693
1042.00 -18.41421251   2.22188316
1044.00 -18.49910893   2.23461739
1046.00 -18.58416171   2.24739970
1048.00 -18.66937083   2.26023018
1050.00 -18.75473625   2.27310890
1052.00 -18.84025792   2.28603597
1054.00 -18.92593582   2.29901146
1056.00 -19.01176991   2.31203546
1058.00 -19.09776016   2.32510806
1060.00 -19.18390651   2.33822934
1062.00 -19.27020895   2.35139939
1064.00 -19.35666742   2.36461829
1066.00 -19.44328191   2.37788613
1068.00 -19.53005236   2.39120299
1070.00 -19.61697874   2.40456897
1072.00 -19.70406102   2.41798414
1074.00 -19.79129915   2.43144859
1076.00 -19.87869310   2.44496241
1078.00 -19.96624284   2.45852569
1080.00 -20.05394833   2.47213850
1082.00 -20.14180952   2.48580093
1084.00 -20.22982638   2.49951308
1086.00 -20.31799888   2.51327502
1088.00 -20.40632698   2.52708683
1090.00 -20.49481063   2.54094862
1092.00 -20.58344981   2.55486045
1094.00 -20.67224447   2.56882242
1096.00 -20.76119458   2.58283461
1098.00 -20.85030009   2.59689711
1100.00 -20.93956098   2.61101000
1102.00 -21.02897720   2.62517336
1104.00 -21.11854872   2.63938729
1106.00 -21.20827549   2.65365186
1108.00 -21.29815748   2.66796716
1110.00 -21.38819466   2.68233328
1112.00 -21.47838697   2.69675030
1114.00 -21.56873439   2.71121831
1116.00 -21.65923688   2.72573739
1118.00 -21.74989440   2.74030762
1120.00 -21.84070690   2.75492910
1122.00 -21.93167436   2.76960190
1124.00 -22.02279673   2.78432611
1126.00 -22.11407397   2.79910181
1128.00 -22.20550605   2.81392909
1130.00 -22.29709293   2.82880804
1132.00 -22.38883456   2.84373874
1134.00 -22.48073092   2.85872127
1136.00 -22.57278195   2.87375571
1138.00 -22.66498763   2.88884216
1140.00 -22.75734790   2.90398070
1142.00 -22.84986274   2.91917140
1144.00 -22.94253211   2.93441436
1146.00 -23.03535596   2.94970966
1148.00 -23.12833425   2.96505738
1150.00 -23.22146696   2.98045762
1152.00 -23.31475402   2.99591044
1154.00 -23.40819542   3.01141594
1156.00 -23.50179111   3.02697420
1158.00 -23.59554104   3.04258530
1160.00 -23.68944518   3.05824934
1162.00 -23.78350349   3.07396638
1164.00 -23.87771593   3.08973652
1166.00 -23.97208246   3.10555984
1168.00 -24.06660304   3.12143643
1170.00 -24.16127763   3.13736636
1172.00 -24.25610619   3.15334973
1174.00 -24.35108868   3.16938661
1176.00 -24.44622506   3.18547709
1178.00 -24.54151529   3.20162126
1180.00 -24.63695933   3.21781919
1182.00 -24.73255714   3.23407097
1184.00 -24.82830868   3.25037669
1186.00 -24.92421390   3.26673642
1188.00 -25.02027278   3.28315026
1190.00 -25.11648526   3.29961828
1192.00 -25.21285131   3.31614057
1194.00 -25.30937088   3.33271721
1196.00 -25.40604394   3.34934828
1198.00 -25.50287045   3.36603387
1200.00 -25.59985036   3.38277407
1202.00 -25.69698363   3.39956895
1204.00 -25.79427022   3.41641860
1206.00 -25.89171010   3.43332309
1208.00 -25.98930321   3.45028253
1210.00 -26.08704953   3.46729698
1212.00 -26.18494900   3.48436653
1214.00 -26.28300159   3.50149126
1216.00 -26.38120725   3.51867127
1218.00 -26.47956595   3.53590662
1220.00 -26.57807765   3.55319740
1222.00 -26.67674229   3.57054370
1224.00 -26.77555984   3.58794560
1226.00 -26.87453026   3.60540317
1228.00 -26.97365351   3.62291651
1230.00 -27.07292954   3.64048570
1232.00 -27.17235832   3.65811082
1234.00 -27.27193979   3.67579195
1236.00 -27.37167393   3.69352917
1238.00 -27.47156068   3.71132257
1240.00 -27.57160001   3.72917223
1242.00 -27.67179187   3.74707824
1244.00 -27.77213622   3.76504066
1246.00 -27.87263303   3.78305959
1248.00 -27.97328224   3.80113512
1250.00 -28.07408381   3.81926731
1252.00 -28.17503770   3.83745626
1254.00 -28.27614388   3.85570204
1256.00 -28.37740229   3.87400475
1258.00 -28.47881290   3.89236445
1260.00 -28.58037566   3.91078123
1262.00 -28.68209053   3.92925518
1264.00 -28.78395747   3.94778638
1266.00 -28.88597643   3.96637491
1268.00 -28.98814738   3.98502084
1270.00 -29.09047026   4.00372427
1272.00 -29.19294503   4.02248528
1274.00 -29.29557166   4.04130394
1276.00 -29.39835010   4.06018034
1278.00 -29.50128031   4.07911455
1280.00 -29.60436224   4.09810667
1282.00 -29.70759585   4.11715678
1284.00 -29.81098110   4.13626495
1286.00 -29.91451794   4.15543126
1288.00 -30.01820633   4.17465581
1290.00 -30.12204623   4.19393866
1292.00 -30.22603759   4.21327991
1294.00 -30.33018037   4.23267963
1296.00 -30.43447453   4.25213790
1298.00 -30.53892002   4.27165481
