wavelength(nm)         real         imag
200.00   3.60188139   0.00569759
201.00   3.59889385   0.00578346
202.00   3.59589143   0.00587019
203.00   3.59287414   0.00595778
204.00   3.58984197   0.00604624
205.00   3.58679492   0.00613557
206.00   3.58373299   0.00622577
207.00   3.58065619   0.00631685
208.00   3.57756451   0.00640882
209.00   3.57445796   0.00650168
210.00   3.57133653   0.00659542
211.00   3.56820022   0.00669007
212.00   3.56504904   0.00678561
213.00   3.56188298   0.00688206
214.00   3.55870205   0.00697942
215.00   3.55550625   0.00707769
216.00   3.55229557   0.00717688
217.00   3.54907002   0.00727700
218.00   3.54582960   0.00737803
219.00   3.54257430   0.00748000
220.00   3.53930413   0.00758291
221.00   3.53601909   0.00768675
222.00   3.53271918   0.00779154
223.00   3.52940440   0.00789727
224.00   3.52607474   0.00800396
225.00   3.52273022   0.00811160
226.00   3.51937082   0.00822020
227.00   3.51599656   0.00832977
228.00   3.51260743   0.00844030
229.00   3.50920342   0.00855181
230.00   3.50578455   0.00866430
231.00   3.50235081   0.00877777
232.00   3.49890221   0.00889222
233.00   3.49543873   0.00900766
234.00   3.49196039   0.00912410
235.00   3.48846718   0.00924154
236.00   3.48495911   0.00935998
237.00   3.48143617   0.00947942
238.00   3.47789836   0.00959988
239.00   3.47434569   0.00972136
240.00   3.47077815   0.00984385
241.00   3.46719575   0.00996737
242.00   3.46359849   0.01009191
243.00   3.45998636   0.01021749
244.00   3.45635937   0.01034411
245.00   3.45271751   0.01047177
246.00   3.44906080   0.01060047
247.00   3.44538922   0.01073022
248.00   3.44170278   0.01086103
249.00   3.43800148   0.01099289
250.00   3.43428531   0.01112582
251.00   3.43055429   0.01125981
252.00   3.42680841   0.01139487
253.00   3.42304767   0.01153101
254.00   3.41927207   0.01166823
255.00   3.41548161   0.01180653
256.00   3.41167629   0.01194592
257.00   3.40785611   0.01208641
258.00   3.40402108   0.01222798
259.00   3.40017119   0.01237066
260.00   3.39630644   0.01251445
261.00   3.39242684   0.01265934
262.00   3.38853238   0.01280535
263.00   3.38462306   0.01295247
264.00   3.38069889   0.01310072
265.00   3.37675987   0.01325009
266.00   3.37280599   0.01340059
267.00   3.36883726   0.01355223
268.00   3.36485367   0.01370501
269.00   3.36085523   0.01385893
270.00   3.35684194   0.01401399
271.00   3.35281380   0.01417021
272.00   3.34877081   0.01432759
273.00   3.34471296   0.01448612
274.00   3.34064027   0.01464582
275.00   3.33655272   0.01480669
276.00   3.33245033   0.01496873
277.00   3.32833308   0.01513195
278.00   3.32420099   0.01529634
279.00   3.32005405   0.01546193
280.00   3.31589226   0.01562870
281.00   3.31171562   0.01579667
282.00   3.30752414   0.01596584
283.00   3.30331781   0.01613621
284.00   3.29909663   0.01630778
285.00   3.29486061   0.01648057
286.00   3.29060974   0.01665457
287.00   3.28634403   0.01682979
288.00   3.28206347   0.01700624
289.00   3.27776807   0.01718391
290.00   3.27345783   0.01736282
291.00   3.26913274   0.01754296
292.00   3.26479281   0.01772434
293.00   3.26043804   0.01790697
294.00   3.25606843   0.01809085
295.00   3.25168398   0.01827598
296.00   3.24728469   0.01846237
297.00   3.24287055   0.01865002
298.00   3.23844158   0.01883894
299.00   3.23399777   0.01902912
300.00   3.22953912   0.01922059
301.00   3.22506563   0.01941333
302.00   3.22057731   0.01960735
303.00   3.21607415   0.01980266
304.00   3.21155615   0.01999927
305.00   3.20702331   0.02019716
306.00   3.20247564   0.02039636
307.00   3.19791314   0.02059687
308.00   3.19333580   0.02079868
309.00   3.18874362   0.02100180
310.00   3.18413662   0.02120625
311.00   3.17951478   0.02141201
312.00   3.17487810   0.02161910
313.00   3.17022660   0.02182752
314.00   3.16556026   0.02203727
315.00   3.16087909   0.02224836
316.00   3.15618309   0.02246079
317.00   3.15147227   0.02267457
318.00   3.14674661   0.02288970
319.00   3.14200612   0.02310619
320.00   3.13725081   0.02332403
321.00   3.13248066   0.02354324
322.00   3.12769569   0.02376382
323.00   3.12289590   0.02398577
324.00   3.11808127   0.02420910
325.00   3.11325182   0.02443380
326.00   3.10840755   0.02465989
327.00   3.10354845   0.02488737
328.00   3.09867453   0.02511625
329.00   3.09378578   0.02534652
330.00   3.08888221   0.02557819
331.00   3.08396382   0.02581127
332.00   3.07903060   0.02604576
333.00   3.07408256   0.02628166
334.00   3.06911971   0.02651898
335.00   3.06414203   0.02675773
336.00   3.05914953   0.02699790
337.00   3.05414221   0.02723950
338.00   3.04912008   0.02748254
339.00   3.04408312   0.02772702
340.00   3.03903135   0.02797294
341.00   3.03396476   0.02822032
342.00   3.02888335   0.02846914
343.00   3.02378713   0.02871942
344.00   3.01867610   0.02897116
345.00   3.01355024   0.02922437
346.00   3.00840958   0.02947905
347.00   3.00325409   0.02973520
348.00   2.99808380   0.02999282
349.00   2.99289869   0.03025193
350.00   2.98769877   0.03051253
351.00   2.98248404   0.03077462
352.00   2.97725450   0.03103820
353.00   2.97201015   0.03130328
354.00   2.96675099   0.03156987
355.00   2.96147702   0.03183796
356.00   2.95618824   0.03210756
357.00   2.95088465   0.03237868
358.00   2.94556625   0.03265132
359.00   2.94023305   0.03292548
360.00   2.93488504   0.03320118
361.00   2.92952223   0.03347840
362.00   2.92414461   0.03375717
363.00   2.91875218   0.03403747
364.00   2.91334495   0.03431932
365.00   2.90792292   0.03460272
366.00   2.90248609   0.03488767
367.00   2.89703445   0.03517418
368.00   2.89156801   0.03546226
369.00   2.88608677   0.03575190
370.00   2.88059073   0.03604311
371.00   2.87507989   0.03633589
372.00   2.86955425   0.03663026
373.00   2.86401381   0.03692621
374.00   2.85845858   0.03722375
375.00   2.85288854   0.03752288
376.00   2.84730371   0.03782360
377.00   2.84170409   0.03812593
378.00   2.83608966   0.03842986
379.00   2.83046045   0.03873540
380.00   2.82481643   0.03904255
381.00   2.81915763   0.03935132
382.00   2.81348403   0.03966171
383.00   2.80779564   0.03997372
384.00   2.80209245   0.04028737
385.00   2.79637448   0.04060265
386.00   2.79064171   0.04091957
387.00   2.78489416   0.04123813
388.00   2.77913181   0.04155834
389.00   2.77335468   0.04188020
390.00   2.76756276   0.04220372
391.00   2.76175605   0.04252889
392.00   2.75593455   0.04285573
393.00   2.75009827   0.04318423
394.00   2.74424720   0.04351441
395.00   2.73838135   0.04384627
396.00   2.73250071   0.04417980
397.00   2.72660529   0.04451502
398.00   2.72069508   0.04485193
399.00   2.71477010   0.04519053
400.00   2.70883033   0.04553083
401.00   2.70287578   0.04587283
402.00   2.69690645   0.04621654
403.00   2.69092234   0.04656195
404.00   2.68492345   0.04690908
405.00   2.67890978   0.04725793
406.00   2.67288134   0.04760850
407.00   2.66683811   0.04796080
408.00   2.66078011   0.04831483
409.00   2.65470734   0.04867060
410.00   2.64861979   0.04902810
411.00   2.64251746   0.04938735
412.00   2.63640036   0.04974835
413.00   2.63026849   0.05011109
414.00   2.62412185   0.05047560
415.00   2.61796043   0.05084186
416.00   2.61178424   0.05120989
417.00   2.60559328   0.05157969
418.00   2.59938756   0.05195126
419.00   2.59316706   0.05232461
420.00   2.58693179   0.05269974
421.00   2.58068176   0.05307666
422.00   2.57441696   0.05345537
423.00   2.56813739   0.05383587
424.00   2.56184306   0.05421817
425.00   2.55553396   0.05460227
426.00   2.54921010   0.05498818
427.00   2.54287147   0.05537590
428.00   2.53651808   0.05576543
429.00   2.53014993   0.05615679
430.00   2.52376701   0.05654997
431.00   2.51736934   0.05694497
432.00   2.51095690   0.05734181
433.00   2.50452971   0.05774048
434.00   2.49808776   0.05814100
435.00   2.49163105   0.05854336
436.00   2.48515958   0.05894757
437.00   2.47867335   0.05935363
438.00   2.47217237   0.05976155
439.00   2.46565663   0.06017133
440.00   2.45912614   0.06058297
441.00   2.45258090   0.06099649
442.00   2.44602090   0.06141188
443.00   2.43944615   0.06182914
444.00   2.43285664   0.06224829
445.00   2.42625239   0.06266933
446.00   2.41963339   0.06309226
447.00   2.41299963   0.06351708
448.00   2.40635113   0.06394380
449.00   2.39968788   0.06437243
450.00   2.39300988   0.06480296
451.00   2.38631713   0.06523541
452.00   2.37960964   0.06566977
453.00   2.37288741   0.06610605
454.00   2.36615043   0.06654425
455.00   2.35939870   0.06698439
456.00   2.35263224   0.06742645
457.00   2.34585103   0.06787046
458.00   2.33905507   0.06831640
459.00   2.33224438   0.06876429
460.00   2.32541895   0.06921413
461.00   2.31857878   0.06966593
462.00   2.31172387   0.07011968
463.00   2.30485422   0.07057539
464.00   2.29796984   0.07103307
465.00   2.29107071   0.07149272
466.00   2.28415686   0.07195435
467.00   2.27722827   0.07241795
468.00   2.27028494   0.07288354
469.00   2.26332688   0.07335112
470.00   2.25635409   0.07382068
471.00   2.24936656   0.07429224
472.00   2.24236431   0.07476581
473.00   2.23534732   0.07524137
474.00   2.22831561   0.07571895
475.00   2.22126917   0.07619853
476.00   2.21420800   0.07668014
477.00   2.20713210   0.07716376
478.00   2.20004147   0.07764941
479.00   2.19293612   0.07813709
480.00   2.18581605   0.07862680
481.00   2.17868125   0.07911855
482.00   2.17153172   0.07961234
483.00   2.16436748   0.08010818
484.00   2.15718851   0.08060606
485.00   2.14999482   0.08110600
486.00   2.14278641   0.08160800
487.00   2.13556329   0.08211207
488.00   2.12832544   0.08261820
489.00   2.12107287   0.08312640
490.00   2.11380559   0.08363667
491.00   2.10652360   0.08414903
492.00   2.09922688   0.08466346
493.00   2.09191545   0.08517999
494.00   2.08458931   0.08569861
495.00   2.07724846   0.08621932
496.00   2.06989289   0.08674214
497.00   2.06252261   0.08726706
498.00   2.05513762   0.08779408
499.00   2.04773792   0.08832322
500.00   2.04032351   0.08885448
501.00   2.03289440   0.08938786
502.00   2.02545057   0.08992336
503.00   2.01799204   0.09046100
504.00   2.01051880   0.09100077
505.00   2.00303086   0.09154267
506.00   1.99552821   0.09208672
507.00   1.98801087   0.09263291
508.00   1.98047881   0.09318126
509.00   1.97293206   0.09373175
510.00   1.96537060   0.09428441
511.00   1.95779445   0.09483923
512.00   1.95020359   0.09539622
513.00   1.94259804   0.09595538
514.00   1.93497779   0.09651671
515.00   1.92734284   0.09708023
516.00   1.91969320   0.09764592
517.00   1.91202886   0.09821381
518.00   1.90434983   0.09878389
519.00   1.89665610   0.09935616
520.00   1.88894768   0.09993063
521.00   1.88122457   0.10050731
522.00   1.87348677   0.10108620
523.00   1.86573428   0.10166730
524.00   1.85796710   0.10225062
525.00   1.85018523   0.10283616
526.00   1.84238867   0.10342393
527.00   1.83457743   0.10401392
528.00   1.82675150   0.10460615
529.00   1.81891088   0.10520062
530.00   1.81105558   0.10579733
531.00   1.80318560   0.10639628
532.00   1.79530093   0.10699749
533.00   1.78740159   0.10760095
534.00   1.77948756   0.10820667
535.00   1.77155885   0.10881465
536.00   1.76361547   0.10942490
537.00   1.75565740   0.11003742
538.00   1.74768466   0.11065221
539.00   1.73969724   0.11126929
540.00   1.73169515   0.11188865
541.00   1.72367838   0.11251030
542.00   1.71564694   0.11313424
543.00   1.70760082   0.11376047
544.00   1.69954003   0.11438901
545.00   1.69146457   0.11501985
546.00   1.68337444   0.11565300
547.00   1.67526965   0.11628847
548.00   1.66715018   0.11692625
549.00   1.65901604   0.11756635
550.00   1.65086724   0.11820877
551.00   1.64270377   0.11885353
552.00   1.63452564   0.11950062
553.00   1.62633284   0.12015005
554.00   1.61812538   0.12080182
555.00   1.60990326   0.12145594
556.00   1.60166648   0.12211240
557.00   1.59341503   0.12277122
558.00   1.58514893   0.12343240
559.00   1.57686816   0.12409595
560.00   1.56857274   0.12476186
561.00   1.56026266   0.12543014
562.00   1.55193793   0.12610079
563.00   1.54359854   0.12677383
564.00   1.53524450   0.12744925
565.00   1.52687580   0.12812706
566.00   1.51849245   0.12880726
567.00   1.51009445   0.12948985
568.00   1.50168180   0.13017485
569.00   1.49325450   0.13086225
570.00   1.48481255   0.13155205
571.00   1.47635595   0.13224427
572.00   1.46788470   0.13293891
573.00   1.45939881   0.13363597
574.00   1.45089828   0.13433545
575.00   1.44238310   0.13503737
576.00   1.43385327   0.13574171
577.00   1.42530881   0.13644850
578.00   1.41674970   0.13715772
579.00   1.40817595   0.13786940
580.00   1.39958756   0.13858352
581.00   1.39098454   0.13930009
582.00   1.38236687   0.14001913
583.00   1.37373457   0.14074062
584.00   1.36508763   0.14146459
585.00   1.35642606   0.14219102
586.00   1.34774986   0.14291993
587.00   1.33905902   0.14365131
588.00   1.33035355   0.14438519
589.00   1.32163345   0.14512154
590.00   1.31289872   0.14586039
591.00   1.30414935   0.14660174
592.00   1.29538536   0.14734558
593.00   1.28660675   0.14809193
594.00   1.27781350   0.14884079
595.00   1.26900564   0.14959215
596.00   1.26018314   0.15034604
597.00   1.25134603   0.15110244
598.00   1.24249429   0.15186137
599.00   1.23362793   0.15262283
600.00   1.22474695   0.15338682
601.00   1.21585135   0.15415335
602.00   1.20694113   0.15492242
603.00   1.19801629   0.15569403
604.00   1.18907683   0.15646820
605.00   1.18012276   0.15724492
606.00   1.17115408   0.15802419
607.00   1.16217078   0.15880603
608.00   1.15317287   0.15959043
609.00   1.14416035   0.16037740
610.00   1.13513321   0.16116695
611.00   1.12609147   0.16195907
612.00   1.11703511   0.16275378
613.00   1.10796415   0.16355107
614.00   1.09887859   0.16435096
615.00   1.08977841   0.16515344
616.00   1.08066363   0.16595851
617.00   1.07153425   0.16676620
618.00   1.06239026   0.16757648
619.00   1.05323167   0.16838938
620.00   1.04405848   0.16920490
621.00   1.03487070   0.17002303
622.00   1.02566831   0.17084379
623.00   1.01645132   0.17166718
624.00   1.00721974   0.17249320
625.00   0.99797356   0.17332185
626.00   0.98871278   0.17415314
627.00   0.97943741   0.17498708
628.00   0.97014745   0.17582367
629.00   0.96084290   0.17666291
630.00   0.95152375   0.17750481
631.00   0.94219002   0.17834936
632.00   0.93284169   0.17919659
633.00   0.92347878   0.18004648
634.00   0.91410128   0.18089904
635.00   0.90470920   0.18175428
636.00   0.89530253   0.18261221
637.00   0.88588127   0.18347281
638.00   0.87644544   0.18433611
639.00   0.86699502   0.18520210
640.00   0.85753002   0.18607079
641.00   0.84805044   0.18694219
642.00   0.83855628   0.18781628
643.00   0.82904754   0.18869309
644.00   0.81952423   0.18957261
645.00   0.80998634   0.19045485
646.00   0.80043388   0.19133982
647.00   0.79086684   0.19222751
648.00   0.78128523   0.19311793
649.00   0.77168905   0.19401109
650.00   0.76207830   0.19490698
651.00   0.75245298   0.19580562
652.00   0.74281309   0.19670700
653.00   0.73315863   0.19761114
654.00   0.72348961   0.19851803
655.00   0.71380602   0.19942768
656.00   0.70410787   0.20034010
657.00   0.69439515   0.20125528
658.00   0.68466787   0.20217324
659.00   0.67492603   0.20309397
660.00   0.66516963   0.20401748
661.00   0.65539868   0.20494378
662.00   0.64561316   0.20587286
663.00   0.63581309   0.20680474
664.00   0.62599846   0.20773941
665.00   0.61616927   0.20867688
666.00   0.60632553   0.20961716
667.00   0.59646724   0.21056025
668.00   0.58659440   0.21150615
669.00   0.57670701   0.21245487
670.00   0.56680507   0.21340640
671.00   0.55688858   0.21436077
672.00   0.54695754   0.21531796
673.00   0.53701196   0.21627799
674.00   0.52705183   0.21724085
675.00   0.51707715   0.21820656
676.00   0.50708794   0.21917511
677.00   0.49708418   0.22014651
678.00   0.48706588   0.22112077
679.00   0.47703304   0.22209788
680.00   0.46698567   0.22307786
681.00   0.45692375   0.22406070
682.00   0.44684730   0.22504641
683.00   0.43675631   0.22603500
684.00   0.42665079   0.22702646
685.00   0.41653074   0.22802081
686.00   0.40639615   0.22901805
687.00   0.39624704   0.23001817
688.00   0.38608339   0.23102119
689.00   0.37590521   0.23202711
690.00   0.36571251   0.23303594
691.00   0.35550528   0.23404767
692.00   0.34528352   0.23506231
693.00   0.33504724   0.23607986
694.00   0.32479644   0.23710034
695.00   0.31453112   0.23812374
696.00   0.30425127   0.23915007
697.00   0.29395690   0.24017933
698.00   0.28364802   0.24121152
699.00   0.27332461   0.24224666
700.00   0.26298669   0.24328474
701.00   0.25263426   0.24432576
702.00   0.24226731   0.24536974
703.00   0.23188585   0.24641668
704.00   0.22148987   0.24746658
705.00   0.21107939   0.24851944
706.00   0.20065439   0.24957527
707.00   0.19021489   0.25063407
708.00   0.17976087   0.25169585
709.00   0.16929235   0.25276060
710.00   0.15880933   0.25382835
711.00   0.14831180   0.25489908
712.00   0.13779977   0.25597281
713.00   0.12727324   0.25704953
714.00   0.11673220   0.25812926
715.00   0.10617667   0.25921199
716.00   0.09560664   0.26029772
717.00   0.08502211   0.26138648
718.00   0.07442308   0.26247825
719.00   0.06380956   0.26357304
720.00   0.05318155   0.26467086
721.00   0.04253904   0.26577170
722.00   0.03188204   0.26687558
723.00   0.02121055   0.26798250
724.00   0.01052457   0.26909246
725.00  -0.00017590   0.27020547
726.00  -0.01089085   0.27132153
727.00  -0.02162030   0.27244064
728.00  -0.03236422   0.27356281
729.00  -0.04312263   0.27468804
730.00  -0.05389552   0.27581633
731.00  -0.06468289   0.27694770
732.00  -0.07548475   0.27808215
733.00  -0.08630108   0.27921967
734.00  -0.09713189   0.28036027
735.00  -0.10797717   0.28150396
736.00  -0.11883693   0.28265074
737.00  -0.12971117   0.28380062
738.00  -0.14059988   0.28495360
739.00  -0.15150306   0.28610967
740.00  -0.16242071   0.28726886
741.00  -0.17335283   0.28843116
742.00  -0.18429942   0.28959657
743.00  -0.19526048   0.29076510
744.00  -0.20623600   0.29193675
745.00  -0.21722599   0.29311154
746.00  -0.22823044   0.29428945
747.00  -0.23924935   0.29547050
748.00  -0.25028273   0.29665469
749.00  -0.26133056   0.29784202
750.00  -0.27239285   0.29903250
751.00  -0.28346961   0.30022613
752.00  -0.29456081   0.30142292
753.00  -0.30566648   0.30262287
754.00  -0.31678659   0.30382598
755.00  -0.32792116   0.30503226
756.00  -0.33907018   0.30624171
757.00  -0.35023366   0.30745433
758.00  -0.36141158   0.30867014
759.00  -0.37260395   0.30988913
760.00  -0.38381076   0.31111131
761.00  -0.39503202   0.31233669
762.00  -0.40626773   0.31356525
763.00  -0.41751788   0.31479702
764.00  -0.42878247   0.31603200
765.00  -0.44006150   0.31727018
766.00  -0.45135498   0.31851157
767.00  -0.46266289   0.31975618
768.00  -0.47398523   0.32100402
769.00  -0.48532202   0.32225507
770.00  -0.49667323   0.32350936
771.00  -0.50803889   0.32476688
772.00  -0.51941897   0.32602763
773.00  -0.53081348   0.32729163
774.00  -0.54222243   0.32855887
775.00  -0.55364580   0.32982936
776.00  -0.56508360   0.33110310
777.00  -0.57653583   0.33238010
778.00  -0.58800248   0.33366036
779.00  -0.59948355   0.33494389
780.00  -0.61097905   0.33623069
781.00  -0.62248897   0.33752076
782.00  -0.63401331   0.33881410
783.00  -0.64555207   0.34011073
784.00  -0.65710524   0.34141064
785.00  -0.66867283   0.34271384
786.00  -0.68025484   0.34402034
787.00  -0.69185126   0.34533013
788.00  -0.70346209   0.34664323
789.00  -0.71508733   0.34795963
790.00  -0.72672698   0.34927934
791.00  -0.73838105   0.35060236
792.00  -0.75004952   0.35192871
793.00  -0.76173239   0.35325837
794.00  -0.77342967   0.35459136
795.00  -0.78514135   0.35592768
796.00  -0.79686744   0.35726733
797.00  -0.80860793   0.35861032
798.00  -0.82036282   0.35995665
799.00  -0.83213210   0.36130633
800.00  -0.84391578   0.36265936
801.00  -0.85571386   0.36401574
802.00  -0.86752634   0.36537548
803.00  -0.87935321   0.36673859
