wavelength(nm)         real         imag
100.00   3.71370750   0.00178019
102.00   3.70618200   0.00188915
104.00   3.69850753   0.00200246
106.00   3.69068411   0.00212022
108.00   3.68271173   0.00224250
110.00   3.67459040   0.00236939
112.00   3.66632012   0.00250099
114.00   3.65790089   0.00263736
116.00   3.64933272   0.00277861
118.00   3.64061562   0.00292481
120.00   3.63174958   0.00307605
122.00   3.62273461   0.00323242
124.00   3.61357071   0.00339399
126.00   3.60425790   0.00356087
128.00   3.59479616   0.00373312
130.00   3.58518551   0.00391084
132.00   3.57542595   0.00409411
134.00   3.56551749   0.00428302
136.00   3.55546012   0.00447765
138.00   3.54525386   0.00467809
140.00   3.53489870   0.00488442
142.00   3.52439466   0.00509673
144.00   3.51374174   0.00531511
146.00   3.50293993   0.00553963
148.00   3.49198926   0.00577039
150.00   3.48088971   0.00600747
152.00   3.46964130   0.00625095
154.00   3.45824403   0.00650092
156.00   3.44669791   0.00675747
158.00   3.43500294   0.00702068
160.00   3.42315912   0.00729064
162.00   3.41116647   0.00756742
164.00   3.39902498   0.00785112
166.00   3.38673467   0.00814183
168.00   3.37429553   0.00843962
170.00   3.36170757   0.00874458
172.00   3.34897080   0.00905680
174.00   3.33608523   0.00937637
176.00   3.32305086   0.00970336
178.00   3.30986769   0.01003786
180.00   3.29653573   0.01037997
182.00   3.28305499   0.01072975
184.00   3.26942547   0.01108731
186.00   3.25564718   0.01145272
188.00   3.24172012   0.01182607
190.00   3.22764431   0.01220744
192.00   3.21341974   0.01259692
194.00   3.19904643   0.01299460
196.00   3.18452437   0.01340056
198.00   3.16985358   0.01381488
200.00   3.15503407   0.01423765
202.00   3.14006583   0.01466896
204.00   3.12494888   0.01510889
206.00   3.10968321   0.01555752
208.00   3.09426885   0.01601494
210.00   3.07870580   0.01648124
212.00   3.06299405   0.01695650
214.00   3.04713362   0.01744081
216.00   3.03112453   0.01793425
218.00   3.01496676   0.01843690
220.00   2.99866033   0.01894886
222.00   2.98220525   0.01947020
224.00   2.96560153   0.02000102
226.00   2.94884916   0.02054139
228.00   2.93194817   0.02109140
230.00   2.91489855   0.02165114
232.00   2.89770032   0.02222069
234.00   2.88035348   0.02280014
236.00   2.86285803   0.02338957
238.00   2.84521399   0.02398906
240.00   2.82742137   0.02459871
242.00   2.80948017   0.02521859
244.00   2.79139040   0.02584880
246.00   2.77315207   0.02648941
248.00   2.75476518   0.02714052
250.00   2.73622975   0.02780220
252.00   2.71754578   0.02847455
254.00   2.69871328   0.02915764
256.00   2.67973226   0.02985156
258.00   2.66060272   0.03055640
260.00   2.64132468   0.03127224
262.00   2.62189814   0.03199917
264.00   2.60232312   0.03273727
266.00   2.58259962   0.03348662
268.00   2.56272764   0.03424732
270.00   2.54270720   0.03501944
272.00   2.52253831   0.03580308
274.00   2.50222098   0.03659831
276.00   2.48175521   0.03740522
278.00   2.46114101   0.03822390
280.00   2.44037840   0.03905442
282.00   2.41946738   0.03989689
284.00   2.39840796   0.04075137
286.00   2.37720014   0.04161796
288.00   2.35584395   0.04249674
290.00   2.33433939   0.04338779
292.00   2.31268646   0.04429121
294.00   2.29088518   0.04520706
296.00   2.26893556   0.04613545
298.00   2.24683760   0.04707645
300.00   2.22459132   0.04803015
302.00   2.20219673   0.04899663
304.00   2.17965383   0.04997598
306.00   2.15696264   0.05096829
308.00   2.13412316   0.05197363
310.00   2.11113541   0.05299210
312.00   2.08799939   0.05402377
314.00   2.06471512   0.05506873
316.00   2.04128260   0.05612707
318.00   2.01770185   0.05719887
320.00   1.99397288   0.05828422
322.00   1.97009570   0.05938320
324.00   1.94607031   0.06049589
326.00   1.92189672   0.06162238
328.00   1.89757496   0.06276276
330.00   1.87310503   0.06391711
332.00   1.84848693   0.06508551
334.00   1.82372069   0.06626805
336.00   1.79880630   0.06746481
338.00   1.77374379   0.06867588
340.00   1.74853316   0.06990134
342.00   1.72317443   0.07114128
344.00   1.69766760   0.07239578
346.00   1.67201268   0.07366492
348.00   1.64620970   0.07494880
350.00   1.62025865   0.07624749
352.00   1.59415955   0.07756108
354.00   1.56791241   0.07888965
356.00   1.54151725   0.08023330
358.00   1.51497407   0.08159209
360.00   1.48828289   0.08296612
362.00   1.46144371   0.08435548
364.00   1.43445655   0.08576024
366.00   1.40732143   0.08718049
368.00   1.38003835   0.08861631
370.00   1.35260732   0.09006780
372.00   1.32502836   0.09153503
374.00   1.29730148   0.09301809
376.00   1.26942668   0.09451706
378.00   1.24140400   0.09603202
380.00   1.21323342   0.09756307
382.00   1.18491498   0.09911029
384.00   1.15644868   0.10067375
386.00   1.12783452   0.10225355
388.00   1.09907254   0.10384977
390.00   1.07016273   0.10546249
392.00   1.04110511   0.10709179
394.00   1.01189969   0.10873777
396.00   0.98254649   0.11040051
398.00   0.95304552   0.11208008
400.00   0.92339679   0.11377658
402.00   0.89360031   0.11549009
404.00   0.86365610   0.11722069
406.00   0.83356417   0.11896846
408.00   0.80332454   0.12073350
410.00   0.77293721   0.12251588
412.00   0.74240220   0.12431569
414.00   0.71171952   0.12613302
416.00   0.68088919   0.12796794
418.00   0.64991122   0.12982055
420.00   0.61878563   0.13169092
422.00   0.58751242   0.13357914
424.00   0.55609161   0.13548529
426.00   0.52452322   0.13740947
428.00   0.49280725   0.13935174
430.00   0.46094373   0.14131220
432.00   0.42893266   0.14329094
434.00   0.39677406   0.14528802
436.00   0.36446795   0.14730355
438.00   0.33201434   0.14933759
440.00   0.29941323   0.15139024
442.00   0.26666466   0.15346159
444.00   0.23376862   0.15555170
446.00   0.20072514   0.15766068
448.00   0.16753423   0.15978860
450.00   0.13419590   0.16193554
452.00   0.10071017   0.16410159
454.00   0.06707706   0.16628684
456.00   0.03329657   0.16849136
458.00  -0.00063128   0.17071525
460.00  -0.03470647   0.17295858
462.00  -0.06892898   0.17522144
464.00  -0.10329881   0.17750391
466.00  -0.13781594   0.17980608
468.00  -0.17248035   0.18212803
470.00  -0.20729203   0.18446984
472.00  -0.24225096   0.18683160
474.00  -0.27735713   0.18921340
476.00  -0.31261052   0.19161531
478.00  -0.34801112   0.19403741
480.00  -0.38355891   0.19647980
482.00  -0.41925388   0.19894256
484.00  -0.45509600   0.20142577
486.00  -0.49108527   0.20392951
488.00  -0.52722167   0.20645387
490.00  -0.56350519   0.20899893
492.00  -0.59993580   0.21156477
494.00  -0.63651349   0.21415148
496.00  -0.67323825   0.21675915
498.00  -0.71011006   0.21938785
500.00  -0.74712890   0.22203767
502.00  -0.78429476   0.22470869
504.00  -0.82160762   0.22740100
506.00  -0.85906747   0.23011467
508.00  -0.89667428   0.23284980
510.00  -0.93442805   0.23560647
512.00  -0.97232876   0.23838476
514.00  -1.01037638   0.24118474
516.00  -1.04857091   0.24400652
518.00  -1.08691232   0.24685017
520.00  -1.12540060   0.24971577
522.00  -1.16403574   0.25260340
524.00  -1.20281771   0.25551316
526.00  -1.24174650   0.25844512
528.00  -1.28082210   0.26139937
530.00  -1.32004448   0.26437599
532.00  -1.35941362   0.26737506
534.00  -1.39892952   0.27039667
536.00  -1.43859216   0.27344090
538.00  -1.47840151   0.27650783
540.00  -1.51835756   0.27959755
542.00  -1.55846029   0.28271013
544.00  -1.59870968   0.28584567
546.00  -1.63910573   0.28900425
548.00  -1.67964840   0.29218595
550.00  -1.72033769   0.29539085
552.00  -1.76117356   0.29861903
554.00  -1.80215602   0.30187058
556.00  -1.84328504   0.30514559
558.00  -1.88456059   0.30844413
560.00  -1.92598267   0.31176629
562.00  -1.96755125   0.31511214
564.00  -2.00926632   0.31848179
566.00  -2.05112786   0.32187530
568.00  -2.09313585   0.32529276
570.00  -2.13529027   0.32873425
572.00  -2.17759111   0.33219986
574.00  -2.22003834   0.33568966
576.00  -2.26263195   0.33920375
578.00  -2.30537191   0.34274221
580.00  -2.34825822   0.34630511
582.00  -2.39129085   0.34989254
584.00  -2.43446978   0.35350458
586.00  -2.47779500   0.35714132
588.00  -2.52126648   0.36080284
590.00  -2.56488421   0.36448923
592.00  -2.60864816   0.36820055
594.00  -2.65255832   0.37193691
596.00  -2.69661467   0.37569837
598.00  -2.74081720   0.37948503
600.00  -2.78516587   0.38329696
602.00  -2.82966068   0.38713425
604.00  -2.87430159   0.39099698
606.00  -2.91908860   0.39488523
608.00  -2.96402169   0.39879909
610.00  -3.00910083   0.40273864
612.00  -3.05432600   0.40670396
614.00  -3.09969719   0.41069513
616.00  -3.14521437   0.41471224
618.00  -3.19087753   0.41875537
620.00  -3.23668665   0.42282460
622.00  -3.28264170   0.42692002
624.00  -3.32874266   0.43104170
626.00  -3.37498953   0.43518973
628.00  -3.42138226   0.43936419
630.00  -3.46792086   0.44356517
632.00  -3.51460529   0.44779274
634.00  -3.56143553   0.45204699
636.00  -3.60841157   0.45632800
638.00  -3.65553339   0.46063586
640.00  -3.70280096   0.46497064
642.00  -3.75021426   0.46933243
644.00  -3.79777328   0.47372130
646.00  -3.84547799   0.47813736
648.00  -3.89332837   0.48258066
650.00  -3.94132440   0.48705131
652.00  -3.98946606   0.49154937
654.00  -4.03775333   0.49607493
656.00  -4.08618619   0.50062808
658.00  -4.13476462   0.50520889
660.00  -4.18348860   0.50981745
662.00  -4.23235810   0.51445384
664.00  -4.28137310   0.51911815
666.00  -4.33053359   0.52381045
668.00  -4.37983954   0.52853082
670.00  -4.42929093   0.53327935
672.00  -4.47888774   0.53805612
674.00  -4.52862995   0.54286122
676.00  -4.57851753   0.54769472
678.00  -4.62855047   0.55255670
680.00  -4.67872874   0.55744726
682.00  -4.72905232   0.56236646
684.00  -4.77952119   0.56731439
686.00  -4.83013533   0.57229114
688.00  -4.88089471   0.57729679
690.00  -4.93179932   0.58233141
692.00  -4.98284913   0.58739509
694.00  -5.03404412   0.59248792
696.00  -5.08538427   0.59760996
698.00  -5.13686955   0.60276131
700.00  -5.18849994   0.60794205
702.00  -5.24027542   0.61315225
704.00  -5.29219598   0.61839201
706.00  -5.34426158   0.62366139
708.00  -5.39647220   0.62896049
710.00  -5.44882782   0.63428939
712.00  -5.50132842   0.63964816
714.00  -5.55397398   0.64503688
716.00  -5.60676446   0.65045565
718.00  -5.65969986   0.65590454
720.00  -5.71278015   0.66138363
722.00  -5.76600529   0.66689300
724.00  -5.81937528   0.67243274
726.00  -5.87289009   0.67800293
728.00  -5.92654969   0.68360364
730.00  -5.98035407   0.68923497
732.00  -6.03430319   0.69489698
734.00  -6.08839704   0.70058977
736.00  -6.14263558   0.70631341
738.00  -6.19701881   0.71206799
740.00  -6.25154669   0.71785358
742.00  -6.30621920   0.72367027
744.00  -6.36103632   0.72951814
746.00  -6.41599803   0.73539727
748.00  -6.47110429   0.74130774
750.00  -6.52635509   0.74724963
752.00  -6.58175041   0.75322303
754.00  -6.63729021   0.75922801
756.00  -6.69297447   0.76526465
758.00  -6.74880318   0.77133305
760.00  -6.80477631   0.77743327
762.00  -6.86089382   0.78356540
764.00  -6.91715571   0.78972952
766.00  -6.97356193   0.79592571
768.00  -7.03011248   0.80215406
770.00  -7.08680732   0.80841464
772.00  -7.14364644   0.81470753
774.00  -7.20062980   0.82103281
776.00  -7.25775738   0.82739057
778.00  -7.31502916   0.83378089
780.00  -7.37244511   0.84020385
782.00  -7.43000521   0.84665952
784.00  -7.48770943   0.85314799
786.00  -7.54555775   0.85966935
788.00  -7.60355014   0.86622366
790.00  -7.66168658   0.87281101
792.00  -7.71996704   0.87943149
794.00  -7.77839150   0.88608517
796.00  -7.83695994   0.89277213
798.00  -7.89567232   0.89949245
800.00  -7.95452862   0.90624622
802.00  -8.01352882   0.91303352
804.00  -8.07267289   0.91985442
806.00  -8.13196081   0.92670901
808.00  -8.19139255   0.93359736
810.00  -8.25096808   0.94051956
812.00  -8.31068738   0.94747569
814.00  -8.37055042   0.95446583
816.00  -8.43055719   0.96149005
818.00  -8.49070764   0.96854844
820.00  -8.55100176   0.97564109
822.00  -8.61143952   0.98276806
824.00  -8.67202089   0.98992944
826.00  -8.73274586   0.99712531
828.00  -8.79361438   1.00435575
830.00  -8.85462644   1.01162084
832.00  -8.91578201   1.01892067
834.00  -8.97708106   1.02625530
836.00  -9.03852357   1.03362483
838.00  -9.10010951   1.04102932
840.00  -9.16183885   1.04846887
842.00  -9.22371157   1.05594355
844.00  -9.28572764   1.06345344
846.00  -9.34788703   1.07099862
848.00  -9.41018972   1.07857918
850.00  -9.47263569   1.08619518
852.00  -9.53522489   1.09384672
854.00  -9.59795731   1.10153387
856.00  -9.66083293   1.10925671
858.00  -9.72385170   1.11701532
860.00  -9.78701361   1.12480978
862.00  -9.85031863   1.13264017
864.00  -9.91376673   1.14050658
866.00  -9.97735789   1.14840907
868.00 -10.04109207   1.15634774
870.00 -10.10496925   1.16432265
872.00 -10.16898940   1.17233389
874.00 -10.23315250   1.18038155
876.00 -10.29745851   1.18846569
878.00 -10.36190742   1.19658640
880.00 -10.42649918   1.20474376
882.00 -10.49123378   1.21293785
884.00 -10.55611119   1.22116874
886.00 -10.62113138   1.22943652
888.00 -10.68629431   1.23774127
890.00 -10.75159997   1.24608306
892.00 -10.81704832   1.25446198
894.00 -10.88263934   1.26287811
896.00 -10.94837300   1.27133151
898.00 -11.01424926   1.27982228
900.00 -11.08026811   1.28835050
902.00 -11.14642952   1.29691623
904.00 -11.21273344   1.30551957
906.00 -11.27917987   1.31416059
908.00 -11.34576876   1.32283937
910.00 -11.41250010   1.33155598
912.00 -11.47937384   1.34031052
914.00 -11.54638997   1.34910305
916.00 -11.61354845   1.35793366
918.00 -11.68084925   1.36680243
920.00 -11.74829236   1.37570942
922.00 -11.81587773   1.38465474
924.00 -11.88360533   1.39363844
926.00 -11.95147515   1.40266062
928.00 -12.01948715   1.41172135
930.00 -12.08764130   1.42082071
932.00 -12.15593757   1.42995877
934.00 -12.22437593   1.43913563
936.00 -12.29295636   1.44835135
938.00 -12.36167882   1.45760601
940.00 -12.43054329   1.46689970
942.00 -12.49954973   1.47623249
944.00 -12.56869812   1.48560447
946.00 -12.63798842   1.49501570
948.00 -12.70742061   1.50446627
950.00 -12.77699466   1.51395626
952.00 -12.84671054   1.52348575
954.00 -12.91656821   1.53305481
956.00 -12.98656765   1.54266352
958.00 -13.05670882   1.55231197
960.00 -13.12699171   1.56200022
962.00 -13.19741627   1.57172837
964.00 -13.26798248   1.58149648
966.00 -13.33869031   1.59130464
968.00 -13.40953972   1.60115292
970.00 -13.48053069   1.61104140
972.00 -13.55166319   1.62097016
974.00 -13.62293718   1.63093929
976.00 -13.69435264   1.64094885
978.00 -13.76590953   1.65099893
980.00 -13.83760783   1.66108960
982.00 -13.90944750   1.67122094
984.00 -13.98142852   1.68139303
986.00 -14.05355085   1.69160595
988.00 -14.12581446   1.70185978
990.00 -14.19821932   1.71215459
992.00 -14.27076540   1.72249047
994.00 -14.34345267   1.73286748
996.00 -14.41628110   1.74328572
998.00 -14.48925065   1.75374525
1000.00 -14.56236130   1.76424615
1002.00 -14.63561302   1.77478851
1004.00 -14.70900577   1.78537240
1006.00 -14.78253952   1.79599790
1008.00 -14.85621424   1.80666508
1010.00 -14.93002990   1.81737403
1012.00 -15.00398647   1.82812482
1014.00 -15.07808392   1.83891752
1016.00 -15.15232221   1.84975223
1018.00 -15.22670131   1.86062901
1020.00 -15.30122120   1.87154794
1022.00 -15.37588183   1.88250910
1024.00 -15.45068319   1.89351257
1026.00 -15.52562522   1.90455843
1028.00 -15.60070792   1.91564674
1030.00 -15.67593123   1.92677760
1032.00 -15.75129514   1.93795108
1034.00 -15.82679960   1.94916725
1036.00 -15.90244459   1.96042619
1038.00 -15.97823008   1.97172798
1040.00 -16.05415602   1.98307270
1042.00 -16.13022240   1.99446043
1044.00 -16.20642917   2.00589124
1046.00 -16.28277630   2.01736520
1048.00 -16.35926377   2.02888240
1050.00 -16.43589154   2.04044292
1052.00 -16.51265957   2.05204682
1054.00 -16.58956784   2.06369420
1056.00 -16.66661630   2.07538512
1058.00 -16.74380494   2.08711966
1060.00 -16.82113372   2.09889790
1062.00 -16.89860259   2.11071991
1064.00 -16.97621154   2.12258578
1066.00 -17.05396052   2.13449558
1068.00 -17.13184951   2.14644939
1070.00 -17.20987847   2.15844728
1072.00 -17.28804736   2.17048933
1074.00 -17.36635616   2.18257561
1076.00 -17.44480484   2.19470621
1078.00 -17.52339335   2.20688121
1080.00 -17.60212166   2.21910067
1082.00 -17.68098975   2.23136467
1084.00 -17.75999757   2.24367330
1086.00 -17.83914510   2.25602662
1088.00 -17.91843230   2.26842472
1090.00 -17.99785913   2.28086767
1092.00 -18.07742557   2.29335555
1094.00 -18.15713158   2.30588843
1096.00 -18.23697713   2.31846639
1098.00 -18.31696217   2.33108951
1100.00 -18.39708668   2.34375786
1102.00 -18.47735063   2.35647152
1104.00 -18.55775398   2.36923057
1106.00 -18.63829669   2.38203508
1108.00 -18.71897874   2.39488513
1110.00 -18.79980008   2.40778079
1112.00 -18.88076069   2.42072214
1114.00 -18.96186052   2.43370927
1116.00 -19.04309955   2.44674223
1118.00 -19.12447774   2.45982112
1120.00 -19.20599505   2.47294600
1122.00 -19.28765146   2.48611695
1124.00 -19.36944692   2.49933405
1126.00 -19.45138141   2.51259737
1128.00 -19.53345488   2.52590700
1130.00 -19.61566730   2.53926300
1132.00 -19.69801864   2.55266545
1134.00 -19.78050887   2.56611443
1136.00 -19.86313794   2.57961001
1138.00 -19.94590582   2.59315228
1140.00 -20.02881249   2.60674129
1142.00 -20.11185789   2.62037714
1144.00 -20.19504201   2.63405990
1146.00 -20.27836479   2.64778963
1148.00 -20.36182622   2.66156643
1150.00 -20.44542624   2.67539035
1152.00 -20.52916483   2.68926149
1154.00 -20.61304196   2.70317991
1156.00 -20.69705758   2.71714569
1158.00 -20.78121165   2.73115891
1160.00 -20.86550416   2.74521964
1162.00 -20.94993505   2.75932795
1164.00 -21.03450430   2.77348392
1166.00 -21.11921186   2.78768764
1168.00 -21.20405771   2.80193916
1170.00 -21.28904180   2.81623857
1172.00 -21.37416410   2.83058595
1174.00 -21.45942458   2.84498136
1176.00 -21.54482320   2.85942489
1178.00 -21.63035991   2.87391660
1180.00 -21.71603470   2.88845658
1182.00 -21.80184751   2.90304490
1184.00 -21.88779832   2.91768163
1186.00 -21.97388708   2.93236685
1188.00 -22.06011377   2.94710063
1190.00 -22.14647834   2.96188306
1192.00 -22.23298076   2.97671419
1194.00 -22.31962099   2.99159412
1196.00 -22.40639900   3.00652290
1198.00 -22.49331475   3.02150063
1200.00 -22.58036819   3.03652736
1202.00 -22.66755931   3.05160319
1204.00 -22.75488805   3.06672818
1206.00 -22.84235438   3.08190240
1208.00 -22.92995827   3.09712594
1210.00 -23.01769968   3.11239886
1212.00 -23.10557857   3.12772124
1214.00 -23.19359491   3.14309316
1216.00 -23.28174865   3.15851469
1218.00 -23.37003976   3.17398590
1220.00 -23.45846820   3.18950687
1222.00 -23.54703394   3.20507767
1224.00 -23.63573694   3.22069839
1226.00 -23.72457716   3.23636908
1228.00 -23.81355456   3.25208983
1230.00 -23.90266911   3.26786071
1232.00 -23.99192077   3.28368179
1234.00 -24.08130950   3.29955315
1236.00 -24.17083526   3.31547487
1238.00 -24.26049802   3.33144701
1240.00 -24.35029774   3.34746965
1242.00 -24.44023438   3.36354287
1244.00 -24.53030790   3.37966674
1246.00 -24.62051827   3.39584133
1248.00 -24.71086544   3.41206671
1250.00 -24.80134939   3.42834297
1252.00 -24.89197006   3.44467017
1254.00 -24.98272743   3.46104840
1256.00 -25.07362145   3.47747771
1258.00 -25.16465209   3.49395819
1260.00 -25.25581931   3.51048991
1262.00 -25.34712307   3.52707294
1264.00 -25.43856333   3.54370736
1266.00 -25.53014005   3.56039324
1268.00 -25.62185320   3.57713066
1270.00 -25.71370274   3.59391968
1272.00 -25.80568862   3.61076039
1274.00 -25.89781082   3.62765285
1276.00 -25.99006928   3.64459714
1278.00 -26.08246398   3.66159333
1280.00 -26.17499487   3.67864150
1282.00 -26.26766192   3.69574171
1284.00 -26.36046508   3.71289405
1286.00 -26.45340432   3.73009858
1288.00 -26.54647960   3.74735538
1290.00 -26.63969088   3.76466452
1292.00 -26.73303812   3.78202608
1294.00 -26.82652127   3.79944012
1296.00 -26.92014031   3.81690672
1298.00 -27.01389520   3.83442596
